Unnamed: 0,EEG 1,EEG 2,EEG 3,EEG 4,EEG 5,EEG 6,EEG 7,EEG 8
0,282556.28125,267240.5,303461.5,271634.875,682095.1875,198529.453125,197179.859375,218197.734375
1,282649.34375,267785.71875,303843.28125,272093.875,682454.5625,198747.78125,197594.890625,218648.265625
2,282616.71875,267739.84375,303855.96875,272122.21875,682460.9375,198737.328125,197623.21875,218702.265625
3,282524.53125,267295.0625,303569.4375,271778.71875,682119.375,198563.609375,197312.171875,218373.328125
4,282488.4375,266988.84375,303333.9375,271485.03125,681954.375,198443.796875,197074.0,218084.109375
5,282581.75,267289.59375,303507.5625,271678.75,682108.375,198585.25,197260.0625,218257.015625
6,282662.6875,267799.40625,303854.0,272092.96875,682418.125,198778.984375,197624.390625,218658.359375
7,282635.5,267758.09375,303869.125,272122.9375,682418.8125,198783.109375,197647.546875,218705.03125
8,282554.75,267334.125,303598.03125,271797.59375,682091.75,198625.296875,197356.875,218392.734375
9,282554.5,267071.71875,303399.28125,271539.375,681966.4375,198555.828125,197164.5625,218143.734375
10,282633.1875,267357.09375,303560.9375,271731.25,682131.5625,198664.8125,197353.671875,218317.90625
11,282730.96875,267911.78125,303952.53125,272204.5625,682523.8125,198900.21875,197794.4375,218793.015625
12,282698.0,267869.125,303967.90625,272239.25,682554.4375,198890.84375,197842.359375,218861.5
13,282607.59375,267430.5,303685.21875,271900.75,682205.5625,198711.671875,197550.8125,218547.046875
14,282565.9375,267113.28125,303440.21875,271599.71875,681998.1875,198599.90625,197313.875,218260.0625
15,282650.15625,267386.875,303588.46875,271766.75,682120.75,198715.78125,197473.015625,218407.3125
16,282736.34375,267902.03125,303945.375,272192.03125,682445.3125,198906.125,197856.21875,218823.5
17,282694.59375,267847.9375,303953.96875,272214.65625,682447.8125,198884.046875,197889.484375,218870.96875
18,282606.8125,267407.6875,303672.0625,271882.4375,682114.0,198707.203125,197595.0625,218550.265625
19,282567.8125,267070.8125,303400.625,271545.0,681887.0,198575.046875,197299.578125,218201.671875
20,282655.71875,267362.90625,303565.125,271732.9375,682025.3125,198696.828125,197469.71875,218356.34375
21,282699.5,267868.40625,303912.75,272166.9375,682367.0625,198857.84375,197863.734375,218787.46875
22,282641.75,267796.1875,303903.1875,272175.6875,682364.0,198805.640625,197878.03125,218826.09375
23,282533.125,267343.78125,303605.90625,271822.78125,682035.25,198610.375,197559.75,218489.921875
24,282494.40625,267041.5,303368.1875,271519.34375,681883.0625,198489.578125,197307.984375,218193.09375
25,282645.34375,267393.125,303591.6875,271762.1875,682100.25,198661.953125,197534.265625,218412.671875
26,282800.8125,268000.46875,304037.46875,272281.90625,682524.5,198929.28125,198006.78125,218927.5625
27,282793.46875,268012.625,304106.59375,272369.53125,682612.5625,198953.6875,198097.984375,219051.484375
28,282721.34375,267614.0625,303862.25,272074.375,682312.625,198807.25,197831.90625,218781.921875
29,282652.125,267273.59375,303605.1875,271762.09375,682078.0625,198657.3125,197571.734375,218488.84375
30,282688.78125,267453.75,303679.40625,271842.5625,682110.25,198671.34375,197624.296875,218546.0625
31,282763.0,267900.78125,303970.6875,272190.15625,682322.4375,198790.34375,197887.0625,218857.5625
32,282720.0,267808.25,303940.90625,272167.71875,682244.375,198731.609375,197838.78125,218827.875
33,282627.4375,267339.9375,303634.6875,271800.25,681926.5625,198527.84375,197485.8125,218444.859375
34,282580.0625,267016.625,303382.84375,271496.90625,681763.0,198398.03125,197221.15625,218125.859375
35,282675.71875,267347.96875,303581.40625,271733.125,681995.8125,198555.734375,197445.125,218335.515625
36,282751.0,267883.78125,303949.125,272184.8125,682350.0,198755.921875,197856.671875,218780.3125
37,282657.59375,267772.40625,303890.65625,272144.75,682280.125,198651.234375,197817.0625,218760.46875
38,282564.34375,267350.21875,303610.90625,271817.0,681987.8125,198459.265625,197523.53125,218445.125
39,282555.03125,267076.1875,303391.15625,271533.28125,681857.0625,198354.75,197286.34375,218156.96875
40,282769.15625,267520.09375,303690.125,271858.46875,682146.375,198589.453125,197597.5625,218456.65625
41,283048.125,268261.09375,304269.84375,272512.40625,682713.125,198987.125,198212.421875,219114.421875
42,282947.53125,268161.125,304245.78125,272507.375,682714.125,198925.171875,198218.859375,219155.734375
43,282849.09375,267719.1875,303976.40625,272190.25,682395.5625,198738.578125,197938.828125,218873.390625
44,282808.21875,267373.46875,303705.9375,271851.59375,682100.4375,198582.03125,197635.921875,218542.84375
45,282862.40625,267573.46875,303789.90625,271946.71875,682111.625,198607.6875,197687.515625,218598.375
46,282890.75,267945.9375,304012.4375,272220.9375,682230.0,198640.765625,197869.71875,218823.859375
47,282876.8125,267875.21875,304007.0,272221.8125,682154.8125,198591.0625,197831.90625,218810.265625
48,282842.375,267510.15625,303799.46875,271965.9375,681945.75,198486.0,197590.40625,218551.4375
49,282822.90625,267212.4375,303574.0625,271686.1875,681822.375,198374.25,197349.640625,218265.328125
50,282931.875,267511.0625,303735.375,271866.78125,681973.5625,198488.953125,197497.25,218403.828125
51,283016.71875,268085.3125,304131.96875,272345.375,682343.6875,198704.78125,197924.53125,218871.78125
52,282970.59375,268055.8125,304143.78125,272368.4375,682351.9375,198682.34375,197956.359375,218925.328125
53,282893.78125,267681.1875,303895.5,272065.53125,682057.375,198535.359375,197701.546875,218638.78125
54,282896.84375,267426.3125,303709.53125,271828.25,681950.0625,198442.28125,197531.5,218407.84375
55,283023.96875,267762.03125,303916.5,272055.0,682132.875,198590.15625,197757.609375,218613.296875
56,283114.625,268309.1875,304309.28125,272523.65625,682517.875,198799.46875,198197.75,219085.28125
57,283018.875,268176.96875,304250.0,272477.53125,682460.75,198696.828125,198154.390625,219071.609375
58,282938.6875,267758.1875,303984.28125,272154.75,682133.0625,198529.1875,197863.015625,218772.265625
59,282933.84375,267502.21875,303789.8125,271902.1875,681987.4375,198463.65625,197662.5625,218535.34375
60,283034.4375,267817.1875,303979.34375,272121.78125,682156.5,198615.640625,197873.65625,218744.640625
61,283104.34375,268325.65625,304332.0625,272553.875,682505.0,198784.0,198264.28125,219173.96875
62,283060.28125,268270.9375,304343.875,272589.46875,682532.75,198746.890625,198308.359375,219238.703125
63,282968.375,267804.03125,304040.875,272229.5,682164.5625,198529.359375,197982.109375,218887.78125
64,282941.71875,267471.34375,303777.65625,271897.8125,681934.875,198383.453125,197685.625,218543.65625
65,283045.53125,267777.21875,303953.0625,272095.9375,682089.375,198527.046875,197849.15625,218707.625
66,283107.75,268295.6875,304313.03125,272537.25,682429.1875,198716.671875,198234.953125,219142.59375
67,283055.96875,268216.375,304305.6875,272545.21875,682419.8125,198658.46875,198236.828125,219175.9375
68,282941.1875,267732.4375,303983.375,272159.5,682051.4375,198432.265625,197864.890625,218793.90625
69,282890.65625,267421.1875,303735.28125,271855.4375,681889.4375,198311.75,197593.09375,218486.171875
70,283000.53125,267759.25,303940.65625,272088.5,682090.25,198487.53125,197813.84375,218700.296875
71,283174.625,268400.46875,304416.5625,272641.59375,682565.0,198784.890625,198333.390625,219257.390625
72,283262.5,268472.0,304548.25,272781.78125,682699.3125,198883.421875,198482.609375,219428.609375
73,283170.0625,268038.09375,304272.53125,272451.0625,682353.3125,198692.890625,198190.515625,219122.65625
74,283092.8125,267692.375,303991.875,272110.40625,682057.375,198539.015625,197901.1875,218791.9375
75,283204.75,268011.8125,304184.5625,272326.78125,682207.8125,198697.09375,198100.65625,218990.421875
76,283324.28125,268571.40625,304586.15625,272804.84375,682599.875,198933.21875,198522.484375,219466.875
77,283275.03125,268487.1875,304572.9375,272804.75,682581.4375,198887.0,198515.953125,219497.0
78,283191.59375,268056.96875,304300.5,272482.34375,682236.625,198717.65625,198221.453125,219191.40625
79,283165.875,267772.40625,304083.34375,272216.625,682049.75,198627.71875,198010.171875,218940.796875
80,283248.75,268065.46875,304248.125,272409.5,682197.0625,198767.453125,198196.328125,219120.515625
81,283336.71875,268623.09375,304636.21875,272882.625,682594.875,198984.984375,198633.96875,219597.40625
82,283281.1875,268526.53125,304610.9375,272871.4375,682574.5625,198907.015625,198627.53125,219613.59375
83,283206.8125,268072.875,304318.9375,272518.90625,682203.375,198722.21875,198295.828125,219264.90625
84,283161.5625,267720.96875,304034.6875,272166.375,681943.1875,198569.953125,197970.65625,218896.984375
85,283250.78125,267998.21875,304185.0,272337.0625,682070.9375,198675.1875,198112.734375,219029.046875
86,283321.875,268534.5,304559.78125,272793.9375,682428.375,198887.703125,198521.859375,219478.578125
87,283270.71875,268491.03125,304575.6875,272833.09375,682463.4375,198873.140625,198568.796875,219549.03125
88,283193.84375,268075.125,304316.59375,272520.625,682148.375,198724.71875,198295.03125,219254.0
89,283200.28125,267814.3125,304124.5625,272272.34375,682007.75,198666.875,198099.3125,219011.609375
90,283296.40625,268120.1875,304297.46875,272470.8125,682173.8125,198803.484375,198280.375,219191.046875
91,283376.0625,268651.53125,304667.78125,272917.84375,682542.4375,199001.34375,198674.921875,219637.8125
92,283320.34375,268551.46875,304641.25,272899.53125,682512.4375,198936.890625,198647.46875,219644.96875
93,283288.34375,268165.78125,304414.15625,272615.46875,682215.0,198814.578125,198390.15625,219378.453125
94,283270.03125,267880.125,304202.0625,272348.6875,682053.0625,198723.296875,198173.34375,219122.921875
95,283344.0625,268143.96875,304342.0,272509.1875,682173.9375,198827.359375,198300.9375,219258.46875
96,283432.46875,268681.03125,304719.375,272966.03125,682540.25,199043.015625,198694.5,219710.859375
97,283382.65625,268611.84375,304718.75,272985.25,682551.75,199005.375,198706.84375,219760.84375
98,283310.6875,268171.25,304441.0625,272651.78125,682208.1875,198820.03125,198394.453125,219437.640625
99,283283.4375,267837.125,304178.46875,272323.03125,681986.4375,198685.296875,198100.65625,219100.21875
100,283351.8125,268075.21875,304284.40625,272441.03125,682072.125,198763.96875,198171.203125,219166.46875
101,283408.15625,268573.3125,304624.25,272858.03125,682362.375,198941.984375,198512.921875,219557.078125
102,283292.1875,268440.53125,304561.75,272818.15625,682297.9375,198841.390625,198458.28125,219538.21875
103,283174.96875,267977.40625,304256.53125,272461.4375,682004.25,198633.796875,198118.546875,219191.40625
104,283175.25,267730.90625,304064.65625,272209.21875,681921.875,198575.859375,197911.65625,218944.46875
105,283412.0,268211.28125,304400.90625,272570.40625,682234.9375,198886.28125,198254.53125,219287.703125
106,283629.875,268897.21875,304919.90625,273165.96875,682756.9375,199239.34375,198805.984375,219888.96875
107,283507.75,268717.34375,304822.65625,273080.03125,682659.3125,199095.140625,198715.875,219830.21875
108,283397.6875,268267.875,304537.0,272743.6875,682310.8125,198917.65625,198408.21875,219513.546875
109,283354.59375,267956.40625,304297.90625,272447.46875,682088.0,198812.78125,198153.40625,219226.640625
110,283460.53125,268289.0625,304507.75,272690.21875,682284.0,198984.53125,198371.109375,219456.328125
111,283522.875,268739.5,304812.1875,273057.96875,682557.875,199117.65625,198663.921875,219811.09375
112,283440.59375,268524.125,304668.25,272898.375,682315.125,198946.0,198444.96875,219626.109375
113,283367.90625,268088.0,304387.78125,272558.15625,682009.0625,198794.015625,198103.078125,219266.0625
114,283363.0,267843.375,304207.34375,272329.65625,681935.8125,198757.4375,197919.15625,219032.265625
115,283459.84375,268162.03125,304388.3125,272536.875,682095.5,198903.625,198107.1875,219208.390625
116,283527.15625,268673.0625,304733.0625,272957.09375,682394.9375,199107.828125,198462.484375,219607.515625
117,283462.15625,268599.9375,304726.875,272974.09375,682390.0,199045.609375,198476.53125,219648.90625
118,283318.5625,268139.75,304415.21875,272614.125,682080.25,198819.578125,198159.75,219311.484375
119,283265.5625,267826.46875,304161.75,272299.6875,681946.1875,198689.21875,197906.734375,219014.390625
120,283363.0,268144.875,304335.03125,272491.5625,682122.1875,198836.921875,198079.65625,219186.765625
121,283510.34375,268733.53125,304774.8125,273010.75,682558.5,199106.046875,198555.390625,219707.015625
122,283492.8125,268687.46875,304793.84375,273042.40625,682576.625,199087.4375,198584.171875,219764.234375
123,283415.5625,268261.0,304530.90625,272723.3125,682236.0,198927.3125,198297.0,219465.0
124,283499.78125,268078.34375,304415.75,272548.25,682082.1875,198955.921875,198168.609375,219299.59375
125,283566.9375,268349.15625,304559.625,272716.59375,682174.8125,199064.46875,198308.0,219447.734375
126,283594.9375,268803.96875,304862.53125,273093.71875,682459.25,199199.46875,198615.90625,219815.296875
127,283522.6875,268712.15625,304845.875,273097.75,682459.9375,199130.890625,198611.625,219853.375
128,283467.875,268316.875,304610.75,272811.625,682181.8125,198997.234375,198349.296875,219588.375
129,283422.90625,268014.59375,304373.03125,272518.03125,682026.25,198901.5625,198100.75,219306.296875
130,283480.40625,268232.03125,304465.03125,272621.5625,682087.9375,198941.984375,198166.28125,219372.015625
131,283546.71875,268696.6875,304772.125,272990.28125,682324.5,199084.140625,198461.0625,219707.90625
132,283472.25,268586.34375,304728.59375,272956.03125,682254.9375,199011.53125,198414.03125,219683.421875
133,283412.8125,268156.9375,304455.90625,272624.5,681962.375,198841.3125,198091.984375,219343.671875
134,283379.375,267880.84375,304240.875,272357.90625,681850.8125,198764.234375,197863.734375,219072.9375
135,283467.25,268218.1875,304439.625,272590.1875,682070.6875,198926.421875,198082.15625,219287.875
136,283526.34375,268734.84375,304790.28125,273019.78125,682414.4375,199113.015625,198463.734375,219714.796875
137,283499.71875,268677.46875,304795.46875,273035.15625,682415.6875,199091.28125,198476.609375,219754.046875
138,283413.34375,268249.65625,304515.09375,272700.5,682113.375,198910.6875,198174.15625,219433.25
139,283378.1875,267947.53125,304274.125,272400.0,681964.125,198748.765625,197924.890625,219140.0
140,283528.0625,268302.65625,304502.84375,272652.59375,682164.4375,198895.671875,198159.125,219373.265625
141,283673.875,268891.59375,304942.71875,273170.15625,682596.75,199144.125,198630.21875,219891.5625
142,283642.40625,268843.5,304961.03125,273202.25,682624.0,199106.484375,198662.140625,219956.46875
143,283548.875,268442.6875,304711.0625,272908.65625,682336.3125,198923.03125,198408.3125,219696.5625
144,283472.53125,268057.25,304410.03125,272543.6875,682051.0625,198715.875,198082.59375,219339.28125
145,283562.46875,268332.0,304565.15625,272722.9375,682179.625,198817.703125,198225.46875,219488.59375
146,283637.65625,268816.03125,304891.125,273118.75,682461.4375,198964.78125,198547.0625,219862.859375
147,283597.53125,268742.1875,304885.3125,273129.3125,682444.3125,198917.21875,198538.75,219888.96875
148,283489.5,268216.125,304533.9375,272711.5,682057.0,198647.5625,198121.21875,219457.484375
149,283442.03125,267843.28125,304223.34375,272329.09375,681783.875,198448.28125,197747.953125,219036.46875
150,283498.28125,268152.09375,304386.875,272525.96875,681959.0,198572.640625,197916.296875,219197.671875
151,283529.75,268664.6875,304731.53125,272956.75,682295.8125,198752.609375,198299.140625,219623.328125
152,283423.96875,268554.34375,304680.3125,272919.28125,682247.625,198668.9375,198266.0625,219614.125
153,283366.125,268154.875,304437.375,272624.34375,681984.0625,198518.90625,198005.0,219335.53125
154,283558.0,268096.65625,304433.375,272560.40625,682001.9375,198651.859375,197991.84375,219278.140625
155,283708.75,268486.9375,304681.75,272836.03125,682169.75,198870.28125,198258.828125,219536.078125
156,283750.75,268998.96875,305022.03125,273257.34375,682530.25,199027.0,198641.21875,219957.8125
157,283727.96875,268976.78125,305067.25,273325.5625,682612.375,199037.203125,198723.109375,220065.625
158,283685.59375,268647.5,304887.5625,273114.90625,682424.8125,198944.03125,198562.796875,219899.875
159,283630.0625,268312.9375,304646.34375,272823.96875,682180.125,198819.21875,198334.734375,219643.8125
160,283676.5625,268498.375,304725.09375,272912.75,682179.5625,198844.96875,198389.796875,219714.4375
161,283715.71875,268817.125,304900.53125,273121.25,682219.4375,198854.8125,198477.875,219856.953125
162,283662.59375,268684.25,304844.1875,273066.09375,682096.9375,198796.515625,198372.09375,219776.75
163,283567.5625,268239.0,304556.65625,272727.5,681879.875,198613.671875,198050.234375,219422.25
164,283518.46875,267951.375,304327.15625,272453.90625,681754.375,198511.65625,197824.65625,219133.203125
165,283540.46875,268221.9375,304461.34375,272626.46875,681935.8125,198620.109375,197983.171875,219277.0625
166,283569.96875,268733.53125,304801.46875,273050.09375,682278.4375,198805.359375,198363.421875,219701.390625
167,283493.34375,268657.96875,304778.5625,273041.15625,682257.0,198776.671875,198348.671875,219717.84375
168,283477.71875,268335.46875,304584.65625,272790.1875,682027.0625,198694.40625,198129.625,219483.59375
169,283631.65625,268221.5625,304539.9375,272683.34375,682033.75,198771.921875,198079.296875,219390.609375
170,283769.1875,268556.40625,304757.65625,272923.75,682215.0,198957.625,198295.5625,219607.15625
171,283847.3125,269067.375,305119.75,273357.03125,682555.8125,199163.53125,198668.21875,220032.734375
172,283748.25,268943.53125,305070.9375,273322.40625,682516.0,199094.6875,198629.953125,220032.453125
173,283662.78125,268496.84375,304786.0,272980.71875,682179.9375,198911.84375,198297.359375,219703.890625
174,283628.8125,268210.40625,304567.9375,272713.125,682048.25,198822.4375,198055.6875,219442.734375
175,283698.71875,268469.59375,304700.875,272869.125,682156.75,198927.9375,198168.15625,219569.59375
176,283781.4375,268961.0625,305042.84375,273283.0,682459.6875,199122.21875,198511.125,219963.796875
177,283725.5625,268846.4375,305001.0,273253.5625,682392.625,199071.984375,198475.546875,219942.609375
178,283653.75,268409.78125,304720.375,272922.875,682076.8125,198911.40625,198182.015625,219612.0625
179,283623.71875,268118.5625,304486.5625,272641.125,681932.0,198812.875,197955.375,219321.40625
180,283726.0,268432.125,304659.9375,272842.40625,682086.375,198961.65625,198142.765625,219488.421875
181,283816.90625,268971.96875,305027.9375,273286.46875,682425.6875,199180.96875,198536.78125,219921.78125
182,283749.6875,268900.625,305001.28125,273272.875,682391.75,199143.40625,198514.171875,219932.765625
183,283731.71875,268534.59375,304785.625,273003.40625,682126.1875,199041.484375,198270.71875,219677.875
184,283722.96875,268239.53125,304551.84375,272707.3125,681950.6875,198943.953125,198013.046875,219378.8125
185,283841.78125,268571.34375,304746.1875,272923.3125,682122.8125,199113.90625,198199.90625,219563.78125
186,283942.34375,269123.40625,305141.75,273398.9375,682515.4375,199347.703125,198638.0,220036.75
187,283900.15625,269048.0625,305134.75,273401.90625,682521.125,199311.5,198656.40625,220070.734375
188,283849.5625,268643.9375,304888.4375,273094.875,682214.875,199192.671875,198383.90625,219782.03125
189,283802.09375,268310.4375,304629.0,272776.59375,682011.125,199062.671875,198110.3125,219471.25
190,283887.1875,268578.40625,304773.03125,272943.6875,682122.875,199173.359375,198239.953125,219606.703125
191,283975.15625,269090.15625,305135.21875,273391.25,682458.25,199372.46875,198614.296875,220032.453125
192,283926.71875,269014.25,305126.53125,273398.875,682453.875,199358.265625,198621.359375,220066.171875
193,283848.3125,268585.1875,304850.4375,273072.4375,682123.6875,199194.28125,198325.34375,219747.25
194,283801.28125,268261.28125,304593.3125,272762.03125,681935.5,199075.734375,198062.296875,219432.1875
195,283861.53125,268509.1875,304710.53125,272891.5625,682045.125,199170.0625,198164.859375,219524.546875
196,283945.75,269032.5,305072.53125,273326.625,682362.75,199373.453125,198533.84375,219939.390625
197,283889.59375,268945.9375,305058.3125,273326.1875,682337.1875,199340.90625,198523.828125,219958.34375
198,283767.3125,268506.25,304762.28125,272983.3125,682028.5625,199168.625,198199.640625,219623.875
199,283716.78125,268215.84375,304520.0,272680.125,681898.625,199074.84375,197946.4375,219332.046875
200,283823.71875,268538.875,304712.75,272894.15625,682089.6875,199246.046875,198137.140625,219525.171875
201,283975.96875,269160.4375,305163.28125,273422.09375,682532.0,199575.609375,198623.6875,220054.8125
202,284006.03125,269167.5,305246.34375,273518.3125,682637.5,199614.3125,198752.53125,220192.765625
203,283875.75,268686.5,304931.28125,273143.78125,682264.75,199381.0625,198436.734375,219841.578125
204,283831.84375,268373.65625,304694.0625,272849.1875,682042.3125,199290.84375,198187.921875,219548.140625
205,283931.625,268708.9375,304896.9375,273084.875,682209.1875,199469.84375,198389.53125,219756.015625
206,283994.84375,269256.625,305275.5,273548.875,682615.6875,199699.796875,198808.859375,220233.453125
207,283919.375,269140.21875,305243.3125,273521.875,682620.3125,199637.125,198803.21875,220261.515625
208,283839.4375,268681.84375,304957.46875,273176.6875,682276.5,199459.203125,198487.171875,219931.34375
209,283791.71875,268299.71875,304640.625,272773.90625,681954.0,199294.25,198113.359375,219504.15625
210,283876.8125,268582.40625,304783.84375,272930.71875,682055.375,199418.515625,198236.015625,219603.9375
211,283944.15625,269097.03125,305134.9375,273360.0625,682361.0625,199610.46875,198607.953125,220002.15625
212,283873.53125,269008.4375,305116.625,273356.65625,682334.75,199566.21875,198605.453125,220016.453125
213,283808.53125,268594.125,304877.1875,273057.5,682071.125,199433.0,198346.0,219742.609375
214,283782.3125,268328.15625,304656.0,272768.625,681940.5,199349.859375,198097.078125,219461.59375
215,283883.34375,268676.03125,304853.125,272983.125,682128.8125,199523.578125,198277.328125,219650.875
216,283910.1875,269144.875,305182.15625,273394.40625,682460.5,199674.484375,198639.6875,220067.78125
217,283937.53125,269130.125,305240.1875,273461.8125,682518.25,199715.171875,198707.375,220159.6875
218,283898.90625,268734.40625,305009.9375,273187.875,682220.125,199600.90625,198455.25,219882.53125
219,283813.625,268369.28125,304722.15625,272855.0,681980.25,199447.21875,198160.203125,219533.84375
220,283823.4375,268613.96875,304832.5625,272981.40625,682119.125,199525.8125,198298.15625,219662.046875
221,283918.03125,269179.5625,305242.84375,273468.78125,682550.625,199758.4375,198758.6875,220167.28125
222,283897.65625,269114.5625,305251.71875,273486.03125,682562.125,199732.421875,198762.1875,220211.28125
223,283846.6875,268741.84375,304998.59375,273155.3125,682235.4375,199591.4375,198462.125,219903.984375
224,283821.84375,268488.375,304770.34375,272846.25,682038.5625,199515.796875,198206.609375,219608.9375
225,283889.875,268699.09375,304926.34375,273041.21875,682202.75,199627.1875,198387.75,219787.9375
226,283960.40625,269170.09375,305263.0625,273452.78125,682521.5625,199794.109375,198758.0625,220195.8125
227,283854.46875,268951.3125,305107.5,273281.46875,682286.6875,199615.65625,198560.921875,220012.609375
228,283706.59375,268442.5,304753.96875,272870.90625,681940.5,199381.421875,198167.09375,219586.59375
229,283647.5,268130.90625,304511.96875,272586.78125,681819.375,199275.828125,197928.015625,219293.421875
230,283671.375,268399.75,304643.90625,272754.6875,681991.0,199380.96875,198071.609375,219434.953125
231,283765.5,268956.0625,305043.5625,273241.875,682390.5625,199629.515625,198508.625,219919.625
232,283814.5,268984.03125,305134.75,273349.875,682481.3125,199703.546875,198613.671875,220049.0
233,283898.375,268741.21875,305031.84375,273171.3125,682304.125,199727.859375,198504.421875,219915.15625
234,284002.1875,268584.46875,304939.78125,273025.59375,682132.25,199773.90625,198417.515625,219777.65625
235,284003.0625,268838.125,305042.125,273145.125,682202.4375,199849.109375,198548.3125,219901.296875
236,284036.5,269307.0625,305353.8125,273534.59375,682513.875,199989.921875,198890.125,220289.953125
237,283978.46875,269199.3125,305313.125,273501.15625,682458.3125,199935.734375,198845.234375,220277.875
238,283911.5,268740.84375,305041.0625,273173.28125,682135.5625,199747.625,198539.015625,219969.15625
239,283922.40625,268509.8125,304862.53125,272938.59375,682031.0,199702.03125,198345.1875,219741.796875
240,284016.3125,268854.03125,305056.09375,273170.53125,682222.125,199857.59375,198570.140625,219957.890625
241,284065.46875,269292.125,305366.875,273557.46875,682518.9375,200005.390625,198917.484375,220336.4375
242,284006.90625,269196.65625,305341.28125,273540.125,682492.25,199961.9375,198919.8125,220344.671875
243,283926.90625,268755.6875,305052.59375,273185.28125,682168.0,199790.984375,198623.25,220008.953125
244,283918.65625,268472.0,304811.125,272883.53125,681968.0,199677.359375,198351.09375,219676.890625
245,284009.15625,268785.0,304982.0625,273084.5,682099.25,199815.484375,198523.828125,219834.609375
246,284083.875,269291.59375,305349.53125,273519.125,682463.3125,200046.515625,198937.15625,220285.484375
247,284046.25,269233.40625,305361.5,273545.59375,682485.5,200046.0625,198966.75,220340.640625
248,283976.15625,268844.03125,305107.5,273228.4375,682193.0,199905.96875,198694.671875,220049.625
249,283926.53125,268519.65625,304853.3125,272916.4375,682025.1875,199770.953125,198442.546875,219752.796875
250,284027.90625,268852.25,305040.8125,273126.15625,682197.875,199908.734375,198647.65625,219946.71875
251,284129.5625,269417.375,305437.84375,273600.375,682598.25,200150.671875,199091.5625,220423.4375
252,284099.71875,269325.46875,305441.53125,273618.96875,682615.125,200141.828125,199125.359375,220474.40625
253,284058.84375,268939.40625,305212.09375,273335.03125,682327.0,200029.171875,198889.671875,220217.71875
254,284006.5625,268608.625,304957.03125,273023.25,682099.875,199906.234375,198637.375,219924.546875
255,284081.125,268894.4375,305103.28125,273201.1875,682223.4375,200018.078125,198784.71875,220075.375
256,284154.6875,269411.03125,305456.625,273643.5625,682576.8125,200217.8125,199161.296875,220505.6875
257,284103.5625,269302.21875,305421.40625,273623.625,682538.5625,200167.84375,199124.8125,220502.734375
258,284037.40625,268867.8125,305143.96875,273285.6875,682191.1875,200015.40625,198802.234375,220168.359375
259,284000.65625,268548.4375,304902.9375,272992.78125,682011.5,199875.484375,198542.234375,219866.703125
260,284063.9375,268806.65625,305033.28125,273155.84375,682140.5625,199944.859375,198667.046875,219992.234375
261,284109.375,269296.96875,305355.34375,273557.5625,682437.3125,200127.6875,198998.578125,220374.625
262,284043.375,269224.90625,305332.71875,273560.875,682419.1875,200093.359375,198979.984375,220387.9375
263,283968.90625,268775.625,305054.65625,273232.125,682123.5,199927.515625,198678.046875,220066.53125
264,283949.34375,268479.25,304816.46875,272933.84375,681967.25,199815.21875,198417.15625,219759.59375
265,284025.78125,268789.5,304987.59375,273139.65625,682132.0625,199958.625,198597.5,219930.453125
266,284086.46875,269310.90625,305338.0625,273570.6875,682465.6875,200165.953125,198980.25,220348.0625
267,284044.09375,269205.84375,305319.125,273571.15625,682446.875,200108.375,198981.046875,220365.328125
268,284004.21875,268814.53125,305089.78125,273292.28125,682161.875,199991.171875,198737.421875,220095.046875
269,284067.25,268668.96875,304986.96875,273148.625,682115.5625,200020.671875,198650.15625,219962.71875
270,284238.5625,269087.84375,305276.46875,273483.71875,682402.875,200276.734375,198966.65625,220290.671875
271,284305.8125,269571.53125,305616.3125,273908.40625,682765.1875,200435.171875,199326.78125,220713.921875
272,284197.4375,269337.90625,305466.5625,273758.46875,682577.3125,200240.796875,199138.5,220560.234375
273,284107.125,268797.09375,305092.5625,273301.0625,682098.625,199988.484375,198666.421875,220068.046875
274,284088.71875,268544.40625,304899.4375,273069.5625,681997.6875,199918.125,198472.234375,219820.296875
275,284194.21875,268875.75,305102.5,273307.125,682175.4375,200074.671875,198687.34375,220024.5
276,284250.8125,269318.0625,305397.0,273667.875,682414.1875,200211.5625,198976.84375,220354.234375
277,284176.4375,269168.21875,305313.125,273588.84375,682272.125,200109.453125,198855.875,220252.9375
278,284069.125,268723.5,305018.28125,273244.625,682000.3125,199931.53125,198520.96875,219898.796875
279,284096.0625,268520.71875,304875.9375,273054.8125,681986.5625,199907.75,198376.484375,219711.84375
280,284162.9375,268829.0,305038.46875,273245.25,682135.5625,200029.53125,198536.78125,219875.109375
281,284219.15625,269364.09375,305393.78125,273677.375,682482.75,200216.5625,198911.21875,220300.6875
282,284147.71875,269253.59375,305360.875,273657.25,682454.5625,200161.578125,198883.859375,220303.984375
283,284112.3125,268863.25,305140.3125,273376.40625,682186.375,200055.546875,198639.609375,220050.703125
284,284214.25,268717.6875,305038.03125,273206.625,682094.625,200089.96875,198523.28125,219891.375
285,284415.0625,269166.6875,305362.3125,273572.59375,682377.5,200371.6875,198887.53125,220246.40625
286,284420.25,269618.28125,305671.65625,273966.875,682724.5625,200518.5,199259.109375,220655.625
287,284294.0,269476.3125,305597.4375,273914.46875,682689.8125,200435.34375,199220.921875,220646.234375
288,284156.40625,268971.34375,305250.0,273510.34375,682310.1875,200189.46875,198853.015625,220268.3125
289,284111.0625,268642.84375,304981.78125,273189.1875,682089.6875,200053.390625,198574.421875,219940.375
290,284170.53125,268947.03125,305128.40625,273365.0625,682190.625,200169.625,198738.21875,220092.625
291,284236.25,269427.84375,305457.25,273769.625,682500.1875,200336.28125,199091.109375,220482.171875
292,284168.03125,269290.78125,305407.28125,273736.03125,682442.25,200270.125,199052.21875,220458.65625
293,284069.75,268796.375,305073.15625,273335.90625,682055.1875,200049.28125,198668.296875,220042.65625
294,284052.34375,268533.4375,304865.90625,273077.8125,681933.8125,199976.78125,198450.6875,219769.96875
295,284169.4375,268930.21875,305119.9375,273371.5,682194.375,200197.96875,198736.34375,220050.609375
296,284235.4375,269482.65625,305500.4375,273831.59375,682597.125,200422.375,199167.546875,220523.125
297,284166.9375,269382.875,305467.34375,273801.8125,682578.3125,200372.671875,199153.609375,220528.671875
298,284054.75,268919.03125,305164.8125,273441.40625,682228.75,200181.421875,198834.875,220185.796875
299,284035.34375,268630.4375,304950.59375,273170.78125,682071.125,200092.640625,198618.6875,219919.453125
300,284150.15625,268966.40625,305164.34375,273411.75,682262.375,200251.171875,198847.65625,220144.9375
301,284252.59375,269481.40625,305539.15625,273858.5,682638.5,200454.125,199244.0,220591.609375
302,284287.1875,269475.59375,305604.34375,273933.25,682710.3125,200510.171875,199314.09375,220694.96875
303,284203.78125,269080.0625,305356.40625,273634.8125,682413.625,200387.875,199058.75,220425.40625
304,284114.75,268760.25,305099.90625,273330.8125,682173.75,200251.171875,198834.59375,220148.15625
305,284163.71875,268996.90625,305209.40625,273465.65625,682238.6875,200285.140625,198959.6875,220257.046875
306,284222.21875,269406.65625,305456.09375,273759.96875,682401.625,200366.671875,199178.28125,220504.34375
307,284177.6875,269308.84375,305440.625,273766.0625,682364.625,200343.96875,199169.25,220512.390625
308,284098.1875,268872.53125,305168.90625,273447.40625,682089.25,200186.609375,198872.0625,220189.8125
309,284098.1875,268872.53125,305168.90625,273447.40625,682089.25,200186.609375,198872.0625,220189.8125
310,284098.1875,268872.53125,305168.90625,273447.40625,682089.25,200186.609375,198872.0625,220189.8125
311,284238.9375,269468.875,305489.1875,273822.125,682496.75,200448.578125,199190.078125,220506.859375
312,284113.84375,269295.0,305407.90625,273769.0,682439.3125,200345.484375,199142.703125,220476.09375
313,284077.0,268871.90625,305150.84375,273450.4375,682145.875,200181.703125,198857.21875,220159.5
314,284063.78125,268591.09375,304936.09375,273180.875,682006.5,200097.75,198630.125,219879.484375
315,284216.65625,268998.15625,305193.3125,273465.1875,682237.9375,200332.703125,198894.6875,220140.015625
316,284257.53125,269495.1875,305530.75,273874.96875,682579.1875,200503.46875,199270.1875,220559.78125
317,284186.1875,269366.96875,305481.21875,273825.15625,682521.75,200405.390625,199222.265625,220536.53125
318,284128.59375,268973.125,305243.3125,273536.46875,682234.125,200286.03125,198965.765625,220264.921875
319,284110.90625,268704.5625,305043.9375,273291.84375,682114.8125,200210.125,198775.59375,220038.265625
320,284229.625,269066.65625,305268.53125,273546.125,682342.5625,200392.078125,199012.609375,220276.984375
321,284306.5,269584.21875,305642.3125,273996.28125,682734.9375,200614.609375,199424.953125,220736.71875
322,284226.6875,269410.78125,305550.5,273900.625,682613.25,200514.203125,199313.015625,220653.21875
323,284152.03125,268953.90625,305262.15625,273550.84375,682254.6875,200315.09375,198995.359375,220314.09375
324,284066.0,268509.65625,304899.1875,273106.40625,681899.5625,200061.890625,198581.671875,219843.8125
325,284132.4375,268728.34375,304974.0,273181.34375,681962.375,200104.71875,198597.046875,219835.5
326,284280.3125,269386.28125,305451.0,273750.0625,682438.9375,200449.015625,199116.859375,220383.5625
327,284217.03125,269332.625,305459.40625,273787.96875,682462.625,200428.375,199169.515625,220447.125
328,284123.6875,268916.71875,305198.78125,273482.8125,682178.5,200281.109375,198919.453125,220167.28125
329,284087.375,268644.5625,304971.96875,273201.625,682035.8125,200187.0625,198706.65625,219900.671875
330,284218.4375,269040.0,305202.90625,273463.40625,682244.3125,200390.28125,198947.4375,220137.609375
331,284417.46875,269704.75,305698.21875,274034.28125,682748.375,200721.625,199480.125,220719.734375
332,284415.21875,269649.75,305747.28125,274103.3125,682846.0625,200707.140625,199573.1875,220840.15625
333,284425.59375,269323.15625,305589.40625,273885.78125,682633.8125,200662.96875,199413.59375,220653.65625
334,284414.0625,269044.21875,305381.09375,273615.5,682341.5,200608.890625,199196.15625,220394.375
335,284508.125,269371.0,305574.28125,273839.71875,682483.5625,200748.53125,199391.703125,220606.0
336,284558.65625,269938.09375,305981.1875,274349.625,683006.375,200976.53125,199876.8125,221161.40625
337,284512.78125,269818.46875,305949.96875,274326.09375,683011.3125,200901.515625,199852.953125,221177.140625
338,284366.0625,269143.8125,305450.8125,273710.0,682374.125,200514.296875,199231.03125,220530.1875
339,284294.625,268604.40625,304974.90625,273106.21875,681759.375,200190.28125,198585.25,219810.546875
340,284386.53125,269011.21875,305212.71875,273389.03125,682000.75,200412.453125,198837.46875,220023.25
341,284457.625,269619.625,305663.15625,273953.375,682500.5625,200711.875,199398.671875,220596.078125
342,284413.96875,269575.5625,305695.625,274019.625,682570.875,200714.734375,199500.859375,220698.90625
343,284348.96875,269200.3125,305460.75,273736.5625,682294.4375,200598.328125,199281.375,220440.25
344,284302.03125,268907.875,305221.65625,273448.03125,682114.5,200479.875,199063.65625,220165.234375
345,284335.75,269197.625,305362.65625,273623.90625,682287.5625,200554.53125,199240.0625,220332.59375
346,284437.9375,269756.875,305752.21875,274086.59375,682689.25,200782.15625,199678.0625,220809.140625
347,284464.84375,269725.75,305803.71875,274138.09375,682756.0625,200815.0625,199752.625,220902.5625
348,284616.5,269499.28125,305751.84375,274023.0,682622.6875,200864.3125,199679.765625,220810.390625
349,284599.3125,269242.25,305552.5625,273773.65625,682343.875,200815.59375,199479.859375,220580.078125
350,284608.625,269489.53125,305658.6875,273913.5,682395.0625,200886.40625,199593.671875,220713.46875
351,284640.09375,269939.4375,305961.40625,274296.0625,682706.0625,200999.59375,199916.609375,221099.078125
352,284568.125,269808.28125,305912.34375,274263.4375,682668.5625,200899.8125,199888.0,221097.75
353,284491.3125,269357.125,305616.65625,273906.875,682330.5625,200706.6875,199572.5625,220748.15625
354,284472.28125,269080.9375,305390.65625,273625.15625,682157.6875,200611.5625,199336.0,220449.09375
355,284554.53125,269393.59375,305576.15625,273843.5625,682308.3125,200760.515625,199552.625,220648.921875
356,284631.34375,269890.53125,305921.53125,274262.625,682633.125,200943.359375,199922.59375,221052.421875
357,284592.625,269839.46875,305924.125,274274.96875,682641.1875,200928.875,199940.828125,221087.46875
358,284495.96875,269372.15625,305617.75,273901.0625,682292.1875,200739.0625,199600.546875,220718.390625
359,284449.9375,269055.90625,305363.1875,273579.8125,682100.4375,200608.96875,199326.875,220390.796875
360,284588.25,269455.21875,305609.875,273851.71875,682334.4375,200792.53125,199589.203125,220636.21875
361,284646.53125,269947.9375,305958.84375,274272.71875,682685.875,200960.609375,199979.1875,221050.1875
362,284623.375,269860.3125,305958.90625,274278.09375,682691.125,200921.0,199996.796875,221077.625
363,284564.4375,269442.25,305699.0,273955.59375,682363.8125,200761.046875,199710.796875,220758.359375
364,284519.40625,269141.3125,305455.8125,273649.90625,682174.625,200639.8125,199453.03125,220453.828125
365,284589.5625,269452.53125,305619.71875,273834.375,682328.6875,200763.734375,199611.09375,220606.453125
366,284708.84375,270028.125,306046.625,274345.875,682768.5625,201027.21875,200080.578125,221121.4375
367,284729.3125,270009.0,306108.40625,274423.8125,682873.25,201039.5625,200175.4375,221243.125
368,284684.4375,269633.125,305879.71875,274136.375,682585.5,200928.609375,199933.5,220981.34375
369,284626.15625,269322.96875,305641.625,273849.03125,682344.5,200819.078125,199725.625,220721.34375
370,284666.1875,269476.125,305673.96875,273878.25,682325.75,200791.8125,199716.78125,220697.46875
371,284739.78125,269956.875,306006.65625,274289.8125,682612.1875,200952.828125,200056.890625,221073.15625
372,284686.21875,269845.125,305967.59375,274263.96875,682547.75,200899.359375,200023.71875,221053.9375
373,284605.9375,269401.65625,305677.8125,273920.46875,682239.0,200731.546875,199706.40625,220704.0
374,284539.25,269056.90625,305394.03125,273582.15625,682034.4375,200575.53125,199406.890625,220344.84375
375,284619.875,269411.40625,305596.46875,273824.8125,682247.4375,200735.75,199635.234375,220564.4375
376,284736.5625,269970.0,305996.5625,274306.25,682642.625,200967.046875,200070.5625,221042.484375
377,284576.25,269731.375,305835.09375,274151.65625,682472.0,200774.46875,199903.90625,220900.15625
378,284424.96875,269244.75,305486.9375,273750.21875,682156.5625,200533.515625,199525.984375,220499.4375
379,284440.96875,269024.09375,305331.09375,273541.1875,682101.875,200497.390625,199370.5,220294.953125
380,284706.6875,269531.21875,305710.28125,273948.0,682435.875,200817.921875,199757.546875,220688.0
381,285064.96875,270332.5625,306350.25,274655.46875,683063.4375,201318.234375,200408.96875,221394.125
382,284953.46875,270144.8125,306254.5,274562.21875,682965.875,201187.875,200304.984375,221330.65625
383,284823.03125,269648.6875,305916.28125,274160.78125,682534.875,200953.1875,199910.171875,220938.515625
384,284786.28125,269390.21875,305720.1875,273921.8125,682324.5625,200879.078125,199705.875,220711.59375
385,284800.9375,269644.65625,305844.84375,274087.28125,682420.3125,200923.328125,199844.28125,220868.421875
386,284901.25,270171.1875,306226.875,274549.96875,682821.5,201137.28125,200267.53125,221331.28125
387,284807.375,269961.34375,306107.6875,274419.625,682672.375,201003.25,200138.0625,221210.046875
388,284685.34375,269380.8125,305684.53125,273905.4375,682197.25,200702.9375,199626.65625,220649.015625
389,284642.875,269079.96875,305426.84375,273591.28125,681998.8125,200574.28125,199347.96875,220290.84375
390,284644.65625,269331.03125,305530.21875,273728.5,682123.75,200636.953125,199473.140625,220377.21875
391,284691.15625,269873.53125,305899.5625,274188.9375,682496.625,200852.703125,199906.234375,220825.5
392,284617.375,269771.34375,305869.875,274172.0625,682481.5,200798.34375,199918.125,220837.390625
393,284478.53125,269304.65625,305548.1875,273792.0625,682166.4375,200589.390625,199592.953125,220477.625
394,284553.0,269167.125,305455.1875,273650.53125,682165.8125,200614.421875,199525.359375,220352.984375
395,284750.25,269619.625,305761.875,273984.375,682407.3125,200874.59375,199861.984375,220676.375
396,284958.28125,270255.65625,306248.78125,274533.625,682901.8125,201190.828125,200380.265625,221232.125
397,285036.0,270249.15625,306324.9375,274595.21875,682953.1875,201250.109375,200446.609375,221322.421875
398,284976.71875,269826.25,306059.0625,274260.46875,682582.4375,201117.96875,200135.5625,221002.265625
399,284890.4375,269490.34375,305795.40625,273945.9375,682315.0,200972.046875,199870.828125,220699.4375
400,284934.25,269746.0625,305924.21875,274109.46875,682415.0,201034.734375,200011.28125,220843.46875
401,284959.53125,270182.1875,306213.90625,274481.5,682699.125,201147.734375,200340.75,221210.75
402,284893.46875,270057.71875,306162.0625,274448.0625,682653.5,201075.59375,200327.34375,221202.078125
403,284834.375,269644.84375,305901.96875,274142.28125,682357.375,200942.375,200083.265625,220906.765625
404,284819.25,269357.125,305681.125,273866.09375,682226.0625,200855.375,199893.71875,220640.0625
405,284868.78125,269594.59375,305786.28125,273980.53125,682310.1875,200922.96875,199998.953125,220722.140625
406,284884.25,269969.125,306006.84375,274247.78125,682424.4375,200989.9375,200194.921875,220943.703125
407,284819.1875,269843.0625,305952.40625,274197.1875,682335.5625,200913.40625,200143.875,220893.09375
408,284754.53125,269430.71875,305691.21875,273879.25,682164.8125,200774.546875,199887.71875,220586.34375
409,284745.9375,269152.5625,305461.375,273586.25,682031.25,200678.359375,199662.515625,220280.921875
410,284854.75,269513.40625,305659.3125,273809.25,682237.0625,200828.015625,199881.28125,220463.140625
411,284937.0,270044.59375,306026.5,274253.78125,682569.4375,200997.71875,200295.59375,220886.65625
412,284878.90625,269967.96875,306006.40625,274241.0625,682521.375,200931.546875,200299.0,220889.421875
413,284799.40625,269568.84375,305743.4375,273917.875,682241.375,200756.671875,200023.171875,220577.578125
414,284829.28125,269359.90625,305580.625,273704.46875,682166.9375,200709.5625,199855.1875,220359.6875
415,284991.1875,269757.75,305850.46875,274012.5625,682395.1875,200919.84375,200128.5,220639.359375
416,285060.84375,270241.375,306198.09375,274442.25,682719.5625,201097.671875,200491.046875,221057.515625
417,285004.15625,270133.375,306165.625,274414.34375,682663.8125,201051.625,200452.6875,221050.0
418,284912.5,269703.21875,305882.84375,274070.21875,682336.0,200880.765625,200139.234375,220717.671875
419,284869.78125,269394.6875,305637.59375,273777.3125,682174.0,200742.90625,199888.0,220415.5625
420,284979.65625,269727.53125,305832.5,274009.4375,682340.5,200866.546875,200080.671875,220604.671875
421,285058.59375,270224.375,306192.28125,274453.0625,682662.25,201048.3125,200456.359375,221023.453125
422,285006.9375,270106.625,306156.875,274428.28125,682594.4375,200983.40625,200414.421875,221002.265625
423,284934.59375,269694.375,305897.3125,274108.5,682300.0,200846.171875,200118.125,220686.734375
424,284906.34375,269416.40625,305678.09375,273832.03125,682181.8125,200728.15625,199878.515625,220411.546875
425,284981.625,269727.625,305845.46875,274026.84375,682344.1875,200827.84375,200023.453125,220568.09375
426,285074.4375,270257.46875,306220.53125,274480.6875,682686.5625,201036.875,200398.953125,221001.8125
427,285039.5625,270177.625,306224.375,274498.9375,682677.125,201019.4375,200404.953125,221035.78125
428,285079.34375,269882.75,306088.65625,274305.90625,682467.8125,200987.25,200252.953125,220863.5
429,285088.125,269661.75,305922.09375,274081.21875,682315.625,200960.15625,200084.328125,220651.421875
430,285094.625,269885.15625,306012.03125,274190.03125,682396.4375,200989.578125,200162.65625,220731.171875
431,285154.53125,270290.625,306281.59375,274517.6875,682584.25,201051.171875,200401.1875,221019.78125
432,285102.875,270184.21875,306252.53125,274501.4375,682512.0,201014.796875,200356.671875,221004.40625
433,285058.78125,269840.90625,306054.40625,274258.40625,682311.6875,200946.484375,200154.609375,220781.59375
434,285050.75,269570.8125,305850.5625,273999.6875,682201.8125,200867.8125,199946.46875,220522.328125
435,285135.0625,269877.5625,306021.6875,274206.03125,682348.625,200990.375,200123.140625,220688.53125
436,285152.3125,270325.84375,306314.9375,274581.53125,682600.5,201139.609375,200448.3125,221046.515625
437,285059.59375,270187.90625,306250.46875,274536.46875,682533.875,201041.609375,200412.8125,221026.046875
438,284913.5,269697.15625,305909.75,274151.03125,682212.375,200792.53125,200061.359375,220642.484375
439,284852.34375,269420.4375,305674.5,273861.90625,682088.375,200682.46875,199830.859375,220363.09375
440,285121.1875,269955.875,306067.71875,274290.15625,682473.6875,201033.03125,200243.203125,220781.515625
441,285349.53125,270628.78125,306592.28125,274896.0625,682998.1875,201403.4375,200798.515625,221396.453125
442,285280.59375,270515.40625,306550.4375,274863.34375,682967.75,201332.09375,200763.015625,221406.109375
443,285116.53125,269977.96875,306175.375,274419.1875,682498.5625,201057.4375,200343.703125,220980.984375
444,285167.9375,269780.375,306041.96875,274229.625,682308.5625,201053.859375,200199.84375,220803.859375
445,285328.625,270221.875,306339.0625,274565.09375,682543.8125,201310.640625,200513.75,221131.890625
446,285379.84375,270741.6875,306728.34375,275055.21875,683005.3125,201540.140625,200964.8125,221652.96875
447,285299.65625,270599.0,306682.5,275033.59375,683004.0,201462.984375,200944.78125,221678.359375
448,285202.09375,270123.4375,306372.78125,274660.40625,682642.875,201253.421875,200617.203125,221338.609375
449,285124.5,269639.375,305960.0,274145.40625,682161.875,200965.34375,200105.703125,220774.453125
450,285209.0,269949.71875,306116.28125,274328.25,682279.6875,201091.859375,200232.921875,220883.96875
451,285277.65625,270480.53125,306489.90625,274793.78125,682633.375,201316.1875,200653.234375,221331.359375
452,285214.71875,270362.5,306452.53125,274768.03125,682580.75,201267.90625,200637.3125,221320.375
453,285105.71875,269919.84375,306160.71875,274422.75,682280.125,201102.140625,200334.765625,220985.359375
454,285064.875,269673.8125,305956.6875,274172.6875,682185.1875,201021.234375,200150.140625,220746.828125
455,285216.84375,270080.15625,306214.8125,274462.71875,682400.5,201230.890625,200424.96875,221016.109375
456,285248.0625,270548.5625,306533.09375,274859.6875,682734.0,201391.734375,200778.046875,221412.453125
457,285281.5,270523.71875,306589.5,274918.96875,682800.0625,201428.296875,200848.578125,221504.8125
458,285225.15625,270117.53125,306347.5625,274611.65625,682497.25,201289.1875,200589.390625,221224.609375
459,285261.28125,269885.625,306188.78125,274390.125,682327.8125,201257.984375,200413.0,221007.53125
460,285359.28125,270207.5625,306374.3125,274595.3125,682442.4375,201385.5625,200574.109375,221191.359375
461,285386.5625,270649.0625,306660.21875,274952.3125,682708.6875,201523.25,200847.6875,221538.34375
462,285310.28125,270527.5625,306619.625,274932.28125,682678.8125,201460.65625,200816.125,221546.828125
463,285224.28125,270071.5,306337.46875,274600.65625,682369.625,201286.765625,200520.375,221230.96875
464,285187.625,269778.59375,306105.0,274312.78125,682225.1875,201190.125,200289.15625,220948.875
465,285277.5625,270123.625,306313.40625,274566.25,682439.5625,201334.6875,200536.90625,221183.578125
466,285352.21875,270593.625,306646.46875,274976.0,682758.9375,201510.546875,200906.34375,221583.84375
467,285254.6875,270356.53125,306499.46875,274814.625,682564.75,201346.671875,200728.421875,221417.28125
468,285090.625,269769.125,306064.34375,274295.96875,682131.5625,201027.046875,200205.5625,220863.59375
469,285021.6875,269516.625,305839.125,274026.78125,682013.375,200939.6875,199970.875,220586.96875
470,285116.90625,269895.71875,306062.4375,274289.96875,682251.6875,201121.546875,200208.25,220828.890625
471,285153.46875,270371.28125,306385.75,274692.3125,682566.9375,201298.84375,200563.546875,221227.828125
472,285341.125,270518.78125,306601.40625,274916.09375,682790.75,201489.1875,200809.953125,221485.140625
473,285408.8125,270248.53125,306477.21875,274730.5,682608.6875,201474.609375,200685.234375,221321.078125
474,285273.0,269855.65625,306147.65625,274341.5625,682314.75,201270.671875,200363.90625,220940.921875
475,285338.28125,270156.875,306311.375,274532.09375,682439.75,201382.875,200538.875,221111.78125
476,285422.125,270667.75,306673.46875,274970.90625,682795.5625,201592.53125,200920.828125,221548.796875
477,285339.625,270498.15625,306601.40625,274907.96875,682709.3125,201496.15625,200838.125,221506.609375
478,285275.40625,270078.28125,306350.25,274605.21875,682416.5625,201349.984375,200557.5625,221219.421875
479,285238.65625,269795.03125,306130.65625,274339.875,682286.0625,201248.234375,200333.0625,220959.875
480,285304.28125,270119.25,306310.8125,274560.96875,682454.5625,201369.640625,200527.34375,221157.828125
481,285358.3125,270546.15625,306608.375,274926.125,682711.875,201499.828125,200833.390625,221506.328125
482,285302.0625,270350.4375,306497.0625,274801.5625,682518.625,201364.546875,200678.265625,221368.640625
483,285233.40625,269947.21875,306236.625,274485.59375,682253.3125,201225.796875,200377.859375,221044.1875
484,285174.84375,269665.40625,306002.90625,274201.03125,682123.125,201119.125,200125.1875,220750.40625
485,285268.0,270016.0625,306209.4375,274436.59375,682324.5625,201287.578125,200315.625,220952.375
486,285259.3125,270436.8125,306478.90625,274782.25,682571.875,201384.671875,200587.96875,221286.84375
487,285126.65625,270229.65625,306366.875,274675.0625,682447.25,201249.84375,200465.296875,221203.515625
488,285155.53125,269923.34375,306210.34375,274457.0,682266.4375,201203.171875,200277.265625,220999.125
489,285347.21875,269879.09375,306210.78125,274396.71875,682309.3125,201342.46875,200266.546875,220940.125
490,285418.1875,270215.0,306389.0625,274602.46875,682443.75,201473.359375,200450.984375,221122.328125
491,285414.90625,270658.34375,306673.1875,274955.96875,682723.0,201597.359375,200764.625,221475.75
492,285345.59375,270519.96875,306629.03125,274923.4375,682690.6875,201502.5,200743.265625,221472.53125
493,285337.8125,270155.34375,306421.6875,274658.78125,682425.0625,201404.25,200507.3125,221220.046875
494,285328.0,269899.84375,306222.9375,274404.25,682282.0,201323.875,200292.296875,220971.5
495,285385.375,270222.84375,306402.03125,274618.65625,682452.1875,201468.265625,200478.265625,221166.046875
496,285440.09375,270724.625,306748.75,275046.46875,682797.625,201665.40625,200864.671875,221594.671875
497,285355.0,270542.84375,306647.71875,274947.3125,682672.1875,201534.15625,200767.84375,221509.46875
498,285272.65625,270063.96875,306342.5625,274579.40625,682320.9375,201330.046875,200439.640625,221146.734375
499,285230.8125,269744.09375,306082.125,274260.3125,682130.8125,201197.984375,200166.5,220815.578125
500,285324.875,270106.53125,306288.65625,274502.15625,682334.3125,201377.421875,200389.5625,221025.328125
501,285388.96875,270624.375,306648.15625,274946.75,682690.0625,201569.296875,200788.765625,221467.359375
502,285321.46875,270504.125,306602.03125,274911.09375,682645.9375,201507.25,200756.578125,221459.125
503,285221.59375,270053.625,306293.375,274537.8125,682305.0625,201324.3125,200408.96875,221093.1875
504,285225.78125,269805.59375,306105.375,274294.4375,682195.3125,201259.9375,200206.375,220847.3125
505,285416.59375,270264.625,306421.25,274647.34375,682482.5625,201511.0,200549.515625,221190.28125
506,285507.4375,270798.0,306805.34375,275104.3125,682873.375,201733.53125,200975.546875,221659.84375
507,285397.71875,270623.125,306714.6875,275015.34375,682778.25,201614.0,200898.46875,221602.453125
508,285308.0625,270175.5625,306428.125,274669.6875,682437.4375,201434.828125,200595.375,221277.71875
509,285276.65625,269914.6875,306222.75,274411.125,682294.5625,201367.046875,200398.421875,221039.8125
510,285398.09375,270291.53125,306444.9375,274665.9375,682473.0625,201545.953125,200634.28125,221281.65625
511,285463.1875,270774.21875,306778.4375,275073.0,682807.8125,201716.09375,200995.296875,221691.5
512,285398.96875,270614.90625,306712.09375,275005.875,682732.625,201635.8125,200936.015625,221647.953125
513,285299.125,270112.71875,306375.09375,274595.65625,682353.0,201418.1875,200555.15625,221234.625
514,285266.65625,269815.59375,306137.46875,274298.28125,682187.875,201304.640625,200296.5,220924.734375
515,285369.90625,270190.125,306365.8125,274567.40625,682398.8125,201487.3125,200538.96875,221164.625
516,285455.5625,270725.15625,306744.53125,275029.1875,682777.9375,201719.140625,200950.59375,221624.4375
517,285357.40625,270553.9375,306656.46875,274951.15625,682687.9375,201625.34375,200867.890625,221566.140625
518,285189.3125,270030.625,306281.5,274516.8125,682311.375,201356.234375,200462.53125,221136.640625
519,285157.40625,269757.0625,306056.5625,274238.40625,682195.0625,201238.484375,200230.515625,220857.0625
520,285279.4375,270137.03125,306287.59375,274501.59375,682414.625,201416.578125,200476.03125,221095.421875
521,285539.25,270830.5625,306829.65625,275114.59375,682952.5,201810.421875,201049.296875,221706.515625
522,285495.09375,270714.59375,306800.40625,275086.34375,682915.9375,201771.703125,201019.796875,221699.28125
523,285388.4375,270262.90625,306500.09375,274724.0625,682525.9375,201593.796875,200680.234375,221345.484375
524,285407.125,270080.6875,306366.15625,274542.09375,682360.375,201599.15625,200543.078125,221178.203125
525,285472.5625,270440.125,306583.0625,274803.8125,682582.4375,201766.53125,200788.5,221442.234375
526,285509.40625,270900.375,306908.34375,275206.65625,682943.1875,201915.65625,201143.359375,221856.984375
527,285440.5625,270696.53125,306804.875,275093.3125,682815.25,201790.03125,201014.515625,221757.390625
528,285285.4375,270067.46875,306342.84375,274539.25,682283.8125,201449.9375,200443.84375,221161.578125
529,285249.03125,269760.34375,306100.71875,274238.3125,682106.4375,201340.671875,200168.46875,220831.484375
530,285363.3125,270113.0625,306318.6875,274491.875,682294.875,201500.359375,200380.8125,221035.78125
531,285436.25,270616.15625,306669.78125,274924.5,682610.6875,201707.78125,200756.9375,221446.25
532,285400.3125,270525.5,306637.6875,274895.53125,682540.9375,201688.03125,200715.640625,221419.15625
533,285310.5625,270136.03125,306386.71875,274602.28125,682281.5,201561.6875,200456.796875,221137.359375
534,285256.03125,269864.34375,306166.96875,274339.59375,682188.0,201451.09375,200264.125,220891.578125
535,285318.59375,270182.53125,306334.59375,274536.75,682338.1875,201557.84375,200453.40625,221069.765625
536,285339.4375,270631.96875,306633.125,274913.6875,682640.75,201698.671875,200798.0625,221448.046875
537,285354.71875,270583.71875,306668.90625,274957.9375,682688.0,201721.90625,200860.109375,221526.09375
538,285412.9375,270289.375,306528.34375,274753.5625,682478.5625,201703.84375,200701.328125,221341.203125
539,285453.25,270092.15625,306382.15625,274550.6875,682339.4375,201697.5,200557.65625,221152.375
540,285540.34375,270444.6875,306585.3125,274787.34375,682497.4375,201852.359375,200776.875,221377.859375
541,285539.78125,270856.5,306848.875,275127.375,682763.6875,201959.90625,201066.109375,221718.046875
542,285483.75,270727.28125,306806.84375,275092.78125,682724.0625,201900.09375,201035.359375,221715.546875
543,285409.625,270279.8125,306521.09375,274747.75,682400.3125,201732.375,200719.65625,221381.96875
544,285365.0,269977.4375,306276.5,274449.9375,682237.9375,201613.1875,200465.65625,221080.578125
545,285471.84375,270341.0625,306495.90625,274706.15625,682437.75,201778.0625,200702.9375,221312.859375
546,285558.65625,270837.0,306841.71875,275122.0,682763.5,201971.984375,201070.671875,221720.203125
547,285468.71875,270673.90625,306762.34375,275047.96875,682676.9375,201881.328125,200996.640625,221666.28125
548,285363.125,270194.6875,306441.4375,274666.5625,682333.375,201674.53125,200640.796875,221289.34375
549,285317.15625,269893.84375,306194.40625,274366.0625,682173.6875,201555.53125,200372.40625,220978.390625
550,285435.53125,270291.96875,306438.5,274649.125,682406.125,201744.0,200634.71875,221240.53125
551,285482.65625,270763.0625,306757.0625,275041.625,682726.4375,201911.984375,200983.234375,221632.21875
552,285468.71875,270659.15625,306740.0625,275027.15625,682698.0625,201888.390625,200965.96875,221637.578125
553,285450.9375,270281.6875,306516.28125,274735.5,682412.3125,201789.6875,200704.28125,221355.859375
554,285478.09375,270064.96875,306350.96875,274511.25,682294.0,201749.453125,200529.671875,221133.328125
555,285618.28125,270457.5625,306594.4375,274789.15625,682485.1875,201941.859375,200789.390625,221389.296875
556,285678.1875,270934.4375,306925.125,275196.375,682824.375,202120.390625,201149.53125,221794.84375
557,285598.96875,270777.625,306849.40625,275125.59375,682741.75,202040.640625,201071.65625,221744.875
558,285534.53125,270360.09375,306584.59375,274808.375,682437.0625,201889.640625,200782.78125,221440.4375
559,285494.03125,270054.6875,306341.75,274512.78125,682268.1875,201750.4375,200529.21875,221141.375
560,285598.4375,270425.46875,306565.28125,274775.46875,682478.625,201931.5625,200765.96875,221380.0
561,285682.3125,270944.46875,306931.84375,275214.28125,682849.875,202157.5,201167.3125,221825.25
562,285604.15625,270761.90625,306854.25,275144.25,682770.375,202063.796875,201100.703125,221776.078125
563,285514.65625,270229.375,306500.46875,274716.28125,682354.1875,201795.5,200682.203125,221331.1875
564,285487.40625,269918.59375,306241.96875,274389.3125,682134.6875,201671.390625,200372.84375,220968.8125
565,285575.03125,270302.78125,306469.53125,274659.5,682357.0625,201868.09375,200617.203125,221206.46875
566,285632.34375,270814.90625,306828.21875,275102.5,682717.375,202086.875,201016.9375,221649.5625
567,285563.9375,270684.90625,306774.03125,275052.1875,682647.4375,202038.5,200959.53125,221621.9375
568,285445.90625,270224.28125,306463.875,274687.21875,682314.8125,201844.671875,200627.125,221270.75
569,285379.03125,269927.09375,306211.40625,274383.6875,682173.375,201704.46875,200376.0625,220968.109375
570,285437.0625,270258.625,306391.90625,274600.9375,682382.0,201832.5,200580.90625,221167.03125
571,285576.71875,270824.5625,306816.25,275100.625,682811.375,202101.0,201046.984375,221672.71875
572,285566.25,270742.9375,306819.46875,275107.53125,682815.25,202100.375,201064.046875,221709.921875
573,285534.875,270361.53125,306588.6875,274817.84375,682511.5625,202001.484375,200815.59375,221437.9375
574,285572.875,270155.96875,306432.25,274602.0,682333.375,201985.484375,200648.125,221226.046875
575,285657.28125,270507.875,306631.0,274833.5625,682470.375,202141.140625,200857.078125,221436.59375
576,285677.40625,270964.75,306940.0625,275227.15625,682798.375,202292.0625,201211.84375,221835.625
577,285568.03125,270792.75,306856.21875,275166.0,682739.625,202179.3125,201163.203125,221808.53125
578,285460.9375,270315.21875,306539.53125,274796.28125,682403.1875,201972.421875,200832.125,221456.171875
579,285438.125,270036.71875,306318.25,274518.5,682258.5,201872.203125,200598.953125,221179.375
580,285525.03125,270387.625,306515.375,274751.0625,682414.6875,202025.625,200803.171875,221385.359375
581,285567.15625,270841.8125,306821.4375,275135.3125,682706.875,202178.0625,201132.1875,221762.484375
582,285531.125,270721.125,306793.4375,275114.9375,682673.5625,202145.15625,201111.53125,221767.765625
583,285462.90625,270295.90625,306517.1875,274779.21875,682365.0625,202007.203125,200797.984375,221435.609375
584,285433.59375,270033.125,306302.875,274513.84375,682242.125,201918.875,200574.109375,221166.859375
585,285487.5,270350.0,306474.25,274721.0,682399.625,202023.5625,200759.265625,221350.3125
586,285535.0625,270813.21875,306793.53125,275112.875,682717.0,202183.703125,201106.96875,221739.859375
587,285491.34375,270690.1875,306764.46875,275089.1875,682686.0625,202130.328125,201082.734375,221741.75
588,285445.46875,270289.90625,306520.03125,274783.25,682395.125,202002.375,200803.96875,221450.015625
589,285383.5,269993.0,306266.21875,274465.03125,682215.4375,201893.125,200533.25,221132.703125
590,285485.6875,270361.34375,306491.0625,274721.8125,682444.3125,202066.125,200776.796875,221370.171875
591,285596.46875,270896.1875,306888.84375,275198.0,682859.9375,202299.75,201216.3125,221853.234375
592,285528.0,270782.28125,306859.875,275186.71875,682870.9375,202237.609375,201215.0625,221883.0
593,285446.1875,270345.0,306584.15625,274852.875,682535.25,202075.0625,200912.421875,221572.671875
594,285422.125,270083.75,306377.0,274589.0625,682350.875,202004.171875,200698.015625,221324.84375
595,285481.59375,270338.8125,306495.09375,274719.84375,682407.125,202076.859375,200791.90625,221421.84375
596,285536.5625,270748.46875,306769.03125,275054.40625,682625.0625,202205.78125,201062.09375,221726.1875
597,285463.0,270568.59375,306677.21875,274963.65625,682491.9375,202097.953125,200961.5,221634.0
598,285373.9375,270134.4375,306388.34375,274613.28125,682227.9375,201926.828125,200643.125,221276.921875
599,285370.53125,269922.71875,306232.40625,274417.21875,682193.4375,201901.4375,200506.6875,221083.34375
600,285462.46875,270269.15625,306433.75,274656.0,682360.625,202056.109375,200724.3125,221294.703125
601,285496.6875,270755.0,306749.375,275048.40625,682663.375,202232.875,201066.828125,221681.578125
602,285375.5625,270587.5625,306652.90625,274963.84375,682574.75,202125.046875,200982.25,221627.75
603,285263.96875,270108.40625,306341.125,274595.9375,682246.8125,201930.671875,200649.46875,221280.3125
604,285248.9375,269841.96875,306134.5,274334.59375,682137.375,201830.546875,200439.90625,221025.0625
605,285546.15625,270419.09375,306552.21875,274783.78125,682536.3125,202204.078125,200876.296875,221455.546875
606,285717.1875,271013.46875,306997.125,275298.21875,682984.75,202516.203125,201355.078125,221977.78125
607,285578.5,270779.40625,306863.8125,275171.0,682851.0,202370.109375,201232.59375,221884.078125
608,285467.8125,270316.90625,306564.46875,274819.4375,682515.8125,202160.546875,200920.203125,221559.078125
609,285407.90625,269997.90625,306306.53125,274505.09375,682307.4375,202021.15625,200643.21875,221249.828125
610,285515.03125,270381.28125,306535.59375,274767.6875,682507.0625,202198.546875,200875.21875,221494.53125
611,285599.53125,270889.65625,306902.78125,275213.46875,682890.625,202418.65625,201269.515625,221945.328125
612,285495.53125,270654.34375,306770.46875,275074.71875,682733.875,202278.46875,201118.859375,221823.546875
613,285410.4375,270115.03125,306402.09375,274624.625,682280.4375,202039.21875,200661.359375,221344.0625
614,285360.25,269829.1875,306170.09375,274343.1875,682121.0,201937.296875,200411.203125,221041.15625
615,285404.625,270185.5,306362.5,274584.3125,682315.4375,202072.65625,200642.328125,221260.90625
616,285441.34375,270657.5625,306677.9375,274979.9375,682630.875,202243.953125,201003.078125,221658.140625
617,285332.5625,270487.5,306585.3125,274899.28125,682544.875,202138.546875,200924.671875,221606.109375
618,285218.90625,270029.03125,306280.78125,274541.40625,682240.75,201954.375,200600.484375,221267.625
619,285215.875,269810.0625,306104.03125,274310.71875,682178.25,201916.375,200424.078125,221050.359375
620,285511.4375,270399.78125,306531.03125,274767.40625,682589.3125,202304.3125,200872.71875,221502.484375
621,285687.125,271034.75,307018.75,275333.1875,683127.875,202639.3125,201423.828125,222104.734375
622,285590.9375,270893.0625,306970.03125,275301.8125,683143.9375,202575.75,201425.265625,222138.0
623,285503.40625,270429.65625,306674.34375,274945.96875,682786.5625,202373.859375,201117.703125,221819.96875
624,285480.34375,270158.21875,306467.375,274687.65625,682474.8125,202299.484375,200919.65625,221585.28125
625,285539.25,270447.0,306611.40625,274854.0625,682535.75,202411.15625,201071.46875,221741.03125
626,285555.53125,270796.125,306822.3125,275116.09375,682704.625,202459.078125,201269.953125,221980.640625
627,285451.0,270612.84375,306726.375,275023.65625,682602.125,202350.359375,201179.84375,221909.734375
628,285372.6875,270132.125,306403.4375,274624.1875,682269.5,202154.8125,200805.84375,221502.3125
629,285320.46875,269837.96875,306141.03125,274299.90625,682085.5,202035.90625,200530.109375,221159.796875
630,285386.71875,270192.375,306311.09375,274501.15625,682261.375,202175.828125,200721.453125,221323.3125
631,285462.0,270763.40625,306709.125,274997.46875,682687.8125,202420.625,201216.140625,221832.484375
632,285405.25,270692.25,306704.84375,275023.65625,682750.0625,202405.421875,201307.6875,221910.546875
633,285294.46875,270259.6875,306406.9375,274677.5625,682433.8125,202236.0,201052.078125,221595.46875
634,285253.96875,269997.46875,306167.59375,274385.46875,682248.4375,202124.875,200844.109375,221314.46875
635,285338.625,270375.75,306384.59375,274640.90625,682454.375,202284.453125,201107.59375,221572.3125
636,285447.53125,270875.34375,306779.3125,275117.25,682895.0,202507.703125,201566.34375,222085.421875
637,285517.34375,270861.03125,306853.0,275195.0625,682989.4375,202560.90625,201664.328125,222217.828125
638,285521.28125,270505.375,306660.75,274956.40625,682739.0625,202485.890625,201476.3125,222018.8125
639,285478.1875,270240.375,306442.6875,274702.40625,682436.1875,202384.59375,201281.765625,221789.125
640,285514.40625,270549.1875,306599.4375,274908.5,682553.0,202484.734375,201475.328125,221990.390625
641,285542.65625,270963.875,306892.9375,275282.125,682892.5625,202626.078125,201820.703125,222383.953125
642,285455.40625,270723.90625,306771.53125,275168.9375,682762.25,202468.453125,201699.296875,222293.828125
643,285365.0,270258.4375,306473.625,274819.625,682416.3125,202285.703125,201361.15625,221959.0
644,285289.0,269919.3125,306201.125,274498.375,682218.4375,202123.609375,201057.890625,221637.578125
645,285410.25,270269.09375,306407.375,274728.0,682383.25,202274.890625,201228.65625,221831.0625
646,285427.59375,270691.53125,306685.4375,275075.4375,682645.3125,202411.421875,201505.546875,222163.921875
647,285385.3125,270568.40625,306655.65625,275054.78125,682619.375,202337.203125,201471.921875,222158.734375
648,285332.46875,270184.15625,306417.40625,274759.625,682360.1875,202192.109375,201211.484375,221882.109375
649,285307.15625,269928.4375,306209.4375,274486.0625,682243.6875,202094.5625,200989.9375,221621.671875
650,285384.21875,270268.28125,306403.625,274701.625,682417.1875,202215.703125,201177.78125,221816.75
651,285451.1875,270759.46875,306746.25,275107.15625,682763.5,202404.359375,201534.421875,222219.625
652,285387.4375,270605.78125,306682.125,275036.53125,682700.1875,202328.09375,201465.765625,222173.3125
653,285333.34375,270198.53125,306428.5625,274722.875,682404.4375,202185.3125,201185.5625,221870.84375
654,285303.21875,269937.46875,306223.28125,274463.6875,682284.6875,202099.125,200978.046875,221619.53125
655,285388.34375,270288.3125,306423.3125,274690.34375,682466.625,202229.390625,201177.6875,221825.25
656,285461.375,270776.1875,306761.25,275095.09375,682806.75,202404.796875,201529.6875,222226.59375
657,285394.40625,270621.78125,306686.59375,275021.34375,682724.125,202315.484375,201445.015625,222171.609375
658,285323.0625,270185.03125,306415.15625,274695.875,682410.125,202148.65625,201144.96875,221852.34375
659,285291.6875,269911.28125,306189.5,274411.125,682253.4375,202040.828125,200907.40625,221570.265625
660,285368.5,270230.1875,306353.28125,274597.28125,682362.25,202143.734375,201055.296875,221717.515625
661,285414.1875,270666.0625,306658.15625,274972.5,682643.0625,202298.859375,201364.546875,222072.015625
662,285338.625,270487.5,306575.1875,274891.875,682553.8125,202188.890625,201278.1875,222008.171875
663,285202.71875,269984.84375,306225.8125,274481.75,682218.4375,201934.25,200878.53125,221599.859375
664,285178.6875,269753.28125,306038.59375,274246.4375,682147.5625,201868.09375,200679.421875,221366.6875
665,285314.3125,270148.90625,306289.28125,274529.3125,682389.5625,202061.390625,200926.8125,221623.546875
666,285424.90625,270669.53125,306662.71875,274966.96875,682760.25,202296.703125,201315.5625,222065.390625
667,285322.28125,270482.84375,306561.15625,274869.78125,682661.5625,202177.796875,201210.0625,221997.171875
668,285284.28125,270094.28125,306326.375,274581.34375,682381.8125,202046.640625,200954.171875,221730.484375
669,285335.15625,269898.65625,306177.4375,274383.21875,682273.875,202023.65625,200798.515625,221537.453125
670,285529.0625,270355.90625,306474.4375,274709.375,682528.9375,202266.9375,201101.0625,221846.34375
671,285613.71875,270837.8125,306812.03125,275121.03125,682860.75,202457.546875,201458.515625,222249.03125
672,285490.625,270642.1875,306712.34375,275041.1875,682779.3125,202355.625,201382.25,222201.65625
673,285399.6875,270196.9375,306422.21875,274698.40625,682467.8125,202164.921875,201082.203125,221890.515625
674,285370.0,269911.09375,306187.71875,274408.09375,682297.25,202049.59375,200825.875,221597.796875
675,285456.28125,270229.75,306372.6875,274625.0,682441.8125,202183.078125,201002.359375,221773.21875
676,285492.6875,270614.0,306621.59375,274931.65625,682631.0625,202270.15625,201246.09375,222041.4375
677,285395.40625,270421.6875,306511.28125,274818.375,682476.375,202160.71875,201126.015625,221924.140625
678,285337.71875,270034.9375,306277.125,274533.96875,682257.625,202049.140625,200887.75,221649.65625
679,285326.375,269790.40625,306086.5,274288.5625,682183.6875,201969.5625,200698.109375,221403.0625
680,285381.28125,270121.5625,306258.34375,274484.09375,682330.9375,202091.875,200861.28125,221566.953125
681,285447.34375,270621.15625,306610.96875,274907.15625,682685.625,202299.21875,201228.5625,221986.71875
682,285392.71875,270484.65625,306560.8125,274858.4375,682633.1875,202241.546875,201167.3125,221960.515625
683,285249.5,269965.625,306204.0625,274437.5,682257.5,201995.5,200774.375,221549.25
684,285231.875,269689.28125,305986.28125,274157.9375,682120.75,201892.40625,200535.484375,221261.625
685,285402.90625,270140.59375,306282.03125,274486.0625,682394.125,202136.046875,200834.8125,221561.40625
686,285497.59375,270647.8125,306652.71875,274931.03125,682766.0625,202356.515625,201234.828125,222003.890625
687,285461.375,270543.03125,306630.46875,274920.21875,682741.0625,202334.609375,201220.15625,222014.796875
688,285406.03125,270155.8125,306382.09375,274623.75,682432.5625,202214.359375,200948.359375,221731.1875
689,285343.375,269882.65625,306141.84375,274335.84375,682237.125,202098.3125,200705.53125,221451.078125
690,285396.84375,270196.21875,306315.65625,274549.8125,682400.375,202221.609375,200899.984375,221649.203125
691,285428.5625,270645.5625,306626.4375,274941.40625,682725.6875,202389.515625,201250.28125,222041.796875
692,285350.25,270479.1875,306553.90625,274881.125,682660.1875,202294.921875,201194.5,222006.75
693,285251.53125,269979.3125,306214.96875,274472.625,682283.375,202073.453125,200803.875,221595.03125
694,285235.1875,269719.21875,306003.71875,274206.5625,682140.75,201987.890625,200563.375,221310.71875
695,285321.0,270098.84375,306224.8125,274468.34375,682325.0,202148.921875,200786.171875,221534.765625
696,285381.46875,270599.53125,306562.59375,274873.1875,682660.125,202338.109375,201144.25,221938.34375
697,285309.65625,270464.625,306509.9375,274826.34375,682618.8125,202275.609375,201106.609375,221922.34375
698,285215.6875,270018.5625,306221.96875,274481.125,682299.625,202103.59375,200799.046875,221588.859375
699,285143.09375,269712.53125,305972.59375,274178.84375,682139.625,201973.140625,200545.578125,221286.65625
700,285237.0625,270069.25,306185.9375,274424.8125,682332.625,202129.34375,200760.78125,221501.59375
701,285305.375,270555.71875,306526.75,274829.375,682666.75,202327.015625,201116.625,221904.015625
702,285199.59375,270368.3125,306423.03125,274726.28125,682553.375,202220.171875,201001.375,221815.6875
703,285124.6875,269955.09375,306155.625,274400.125,682269.0,202070.59375,200701.515625,221496.953125
704,285134.78125,269736.03125,305989.0625,274181.53125,682186.0,201999.15625,200519.203125,221278.53125
705,285259.78125,270115.21875,306242.96875,274468.34375,682409.8125,202193.796875,200776.796875,221544.15625
706,285291.34375,270563.5,306562.5,274854.3125,682745.0,202366.71875,201119.75,221939.0625
707,285239.3125,270417.75,306513.78125,274809.25,682698.6875,202313.609375,201071.5625,221920.921875
708,285163.46875,269972.6875,306225.0,274463.34375,682357.6875,202133.359375,200745.40625,221576.96875
709,285102.40625,269698.3125,305984.125,274171.34375,682188.5,202024.109375,200495.34375,221284.6875
710,285189.75,270067.8125,306207.375,274431.34375,682393.0625,202195.5,200736.109375,221532.890625
711,285241.96875,270534.4375,306546.6875,274848.78125,682750.625,202374.671875,201104.109375,221952.390625
712,285158.5625,270335.34375,306436.96875,274735.6875,682630.4375,202254.328125,200985.28125,221856.359375
713,285037.25,269782.15625,306036.625,274253.40625,682202.5625,201987.0,200513.484375,221349.609375
714,285022.84375,269510.46875,305813.1875,273973.125,682044.3125,201893.578125,200254.5625,221034.984375
715,285104.1875,269893.84375,306038.59375,274242.78125,682273.6875,202056.46875,200494.359375,221268.25
716,285192.96875,270429.84375,306426.53125,274713.3125,682667.8125,202292.140625,200922.171875,221737.359375
717,285134.96875,270293.75,306375.46875,274671.125,682618.8125,202234.921875,200879.78125,221718.671875
718,285009.6875,269813.5625,306047.0625,274284.15625,682258.125,202036.359375,200525.109375,221341.375
719,284987.25,269568.5,305846.25,274032.59375,682144.3125,201964.65625,200322.15625,221091.390625
720,285065.3125,269906.8125,306049.84375,274273.34375,682333.25,202111.1875,200539.765625,221308.125
721,285122.25,270380.65625,306379.3125,274669.5,682663.6875,202287.859375,200897.671875,221705.171875
722,285113.40625,270282.59375,306377.25,274670.78125,682658.9375,202290.71875,200904.109375,221729.671875
723,285080.5,269882.9375,306137.1875,274373.125,682365.5,202172.609375,200632.84375,221441.515625
724,285049.65625,269619.09375,305924.59375,274110.8125,682209.25,202088.65625,200401.1875,221177.046875
725,285103.03125,269956.78125,306116.46875,274340.40625,682380.375,202237.609375,200600.390625,221392.515625
726,285139.53125,270397.75,306424.09375,274722.8125,682696.4375,202391.921875,200928.6875,221775.1875
727,285055.21875,270216.15625,306331.03125,274632.40625,682594.9375,202273.546875,200831.859375,221705.0
728,284983.3125,269768.5,306041.09375,274283.8125,682277.3125,202109.40625,200511.078125,221356.75
729,284975.90625,269515.1875,305837.25,274025.6875,682148.0625,202046.90625,200290.6875,221085.40625
730,285034.28125,269825.4375,305994.78125,274211.9375,682260.75,202135.78125,200443.84375,221231.234375
731,285081.84375,270297.15625,306308.59375,274596.28125,682549.375,202293.9375,200774.828125,221599.859375
732,285022.5625,270158.03125,306267.625,274569.375,682508.6875,202258.796875,200745.765625,221591.71875
733,284910.1875,269672.46875,305950.78125,274203.0625,682194.5625,202068.625,200403.875,221230.328125
734,284900.71875,269444.75,305759.1875,273959.0,682115.4375,202007.921875,200206.640625,220990.90625
735,284937.90625,269768.21875,305924.125,274162.84375,682292.5625,202119.953125,200389.03125,221170.703125
736,284989.9375,270232.6875,306241.34375,274556.59375,682610.125,202283.390625,200742.453125,221559.078125
737,284949.71875,270122.1875,306205.78125,274527.71875,682569.375,202251.46875,200723.328125,221549.421875
738,284959.1875,269791.46875,306023.46875,274295.0625,682334.75,202204.265625,200532.625,221326.453125
739,284957.40625,269546.59375,305837.15625,274054.125,682209.0,202117.890625,200347.09375,221094.96875
740,285048.9375,269906.0,306049.40625,274293.125,682390.5625,202272.203125,200560.0625,221315.0
741,285127.625,270406.40625,306413.71875,274736.84375,682771.25,202490.625,200947.203125,221762.9375
742,285038.75,270217.75,306311.375,274639.90625,682663.5,202398.984375,200825.609375,221684.796875
743,284939.25,269762.9375,306001.46875,274269.0625,682301.0625,202213.46875,200473.78125,221329.046875
744,284895.78125,269491.78125,305787.78125,274014.96875,682174.0,202105.203125,200267.703125,221083.703125
745,284996.1875,269869.25,306019.8125,274288.0,682393.5,202277.390625,200521.359375,221335.75
746,285069.0625,270319.96875,306338.53125,274675.875,682713.5,202440.390625,200863.609375,221714.65625
747,284993.0625,270071.65625,306190.84375,274512.875,682508.375,202279.359375,200676.921875,221541.65625
748,284919.5625,269584.03125,305853.59375,274094.09375,682136.3125,202072.390625,200256.0,221092.828125
749,284887.84375,269335.6875,305642.0625,273830.875,682010.3125,201998.890625,200017.1875,220809.578125
750,284974.125,269735.0625,305882.84375,274119.65625,682255.9375,202189.6875,200273.25,221072.0
751,285013.28125,270197.09375,306200.3125,274515.28125,682577.6875,202360.015625,200619.25,221464.765625
752,284931.75,270015.0625,306101.875,274421.0625,682470.125,202260.140625,200521.0,221388.9375
753,284830.71875,269569.75,305799.875,274063.5,682181.5625,202079.265625,200198.859375,221039.546875
754,284816.3125,269335.125,305603.25,273812.375,682078.375,202008.546875,200004.484375,220788.125
755,284978.3125,269791.46875,305894.90625,274139.59375,682333.8125,202233.3125,200318.484375,221095.0625
756,285117.4375,270301.625,306296.0625,274617.21875,682745.0625,202485.265625,200752.296875,221573.5625
757,285134.96875,270241.09375,306329.5,274661.46875,682788.4375,202522.90625,200796.09375,221647.328125
758,285059.0625,269831.96875,306067.46875,274345.59375,682469.3125,202400.953125,200515.625,221358.1875
759,285015.6875,269566.625,305853.34375,274089.09375,682261.4375,202319.328125,200306.6875,221119.5625
760,285028.65625,269833.65625,305980.46875,274255.125,682364.625,202377.0,200443.75,221269.234375
761,285046.09375,270252.625,306267.5625,274619.71875,682666.0,202519.15625,200759.625,221635.703125
762,284956.6875,270004.0,306123.59375,274467.0,682474.625,202360.71875,200588.671875,221482.828125
763,284895.4375,269538.4375,305813.09375,274088.46875,682122.875,202172.796875,200217.1875,221077.8125
764,284871.3125,269250.8125,305569.8125,273783.9375,681941.625,202064.703125,199930.640625,220736.546875
765,284943.71875,269606.75,305769.5625,274022.375,682162.75,202200.0625,200122.421875,220926.078125
766,284997.90625,270107.875,306127.375,274459.125,682526.5625,202409.453125,200508.5625,221360.875
767,284961.15625,269996.375,306105.71875,274442.40625,682502.875,202400.0625,200488.265625,221370.890625
768,284916.1875,269609.25,305865.3125,274142.90625,682235.875,202280.25,200224.875,221088.171875
769,284840.71875,269314.46875,305608.53125,273835.09375,682075.9375,202142.296875,199964.171875,220781.6875
770,284858.96875,269611.75,305749.15625,274017.1875,682216.6875,202223.3125,200125.640625,220935.828125
771,284898.3125,270067.125,306062.53125,274406.375,682531.9375,202389.6875,200480.578125,221322.609375
772,284925.84375,270017.75,306095.625,274444.9375,682567.4375,202432.515625,200536.28125,221393.859375
773,284944.34375,269689.28125,305920.90625,274217.375,682342.125,202383.796875,200363.109375,221193.953125
774,284979.3125,269501.25,305781.96875,274039.8125,682228.9375,202377.4375,200240.96875,221024.25
775,285071.75,269881.9375,306005.59375,274300.875,682406.8125,202553.21875,200486.3125,221273.15625
776,285086.59375,270308.25,306285.625,274661.28125,682702.125,202687.421875,200797.0,221634.640625
777,284979.3125,270143.1875,306214.34375,274624.625,682672.1875,202602.21875,200757.828125,221631.421875
778,284858.59375,269656.1875,305894.625,274250.1875,682321.4375,202405.6875,200421.75,221288.453125
779,284851.53125,269361.25,305668.78125,273967.21875,682154.1875,202308.15625,200171.953125,221003.78125
780,284923.875,269609.53125,305774.03125,274077.5625,682216.0625,202352.9375,200208.078125,221044.375
781,284961.34375,270034.46875,306058.96875,274418.90625,682437.5,202508.6875,200471.640625,221350.3125
782,284876.75,269829.8125,305951.59375,274308.21875,682286.6875,202385.046875,200336.109375,221228.28125
783,284772.875,269425.625,305683.0,273992.4375,682080.25,202253.53125,200054.109375,220918.125
784,284744.875,269197.71875,305499.90625,273764.8125,682030.875,202193.078125,199875.828125,220695.5
785,284814.25,269548.90625,305696.6875,273992.71875,682225.6875,202312.265625,200071.375,220900.15625
786,284855.21875,270013.90625,306011.5,274374.75,682542.75,202476.6875,200407.359375,221285.671875
787,284868.09375,269942.375,306034.65625,274398.4375,682576.5625,202500.375,200444.90625,221342.453125
788,284924.0625,269641.0,305887.3125,274184.21875,682366.5,202490.625,200281.390625,221153.625
789,284866.65625,269346.21875,305631.25,273870.5625,682131.375,202392.015625,200012.265625,220839.359375
790,284943.28125,269706.8125,305838.84375,274121.71875,682312.3125,202532.921875,200237.125,221064.75
791,284988.40625,270176.28125,306171.34375,274544.15625,682676.3125,202665.421875,200628.375,221498.90625
792,284912.78125,270014.71875,306101.34375,274488.1875,682620.0,202596.9375,200584.03125,221477.359375
793,284804.0625,269546.59375,305795.46875,274139.59375,682293.0,202404.71875,200285.765625,221150.9375
794,284755.875,269232.75,305537.71875,273830.875,682110.5625,202263.265625,200025.328125,220839.71875
795,284858.5,269603.28125,305763.21875,274090.5,682318.3125,202428.3125,200255.1875,221073.0625
796,284901.875,270047.625,306074.53125,274474.875,682629.5625,202579.6875,200588.859375,221455.28125
797,284816.40625,269856.46875,305976.53125,274380.09375,682517.625,202474.09375,200484.421875,221373.828125
798,284741.21875,269412.28125,305683.8125,274025.59375,682191.375,202302.78125,200155.671875,221016.109375
799,284727.96875,269152.21875,305464.125,273741.65625,682043.5,202212.578125,199909.1875,220719.828125
800,284820.34375,269539.625,305693.46875,274009.0625,682259.5625,202383.875,200150.5,220959.15625
801,284856.28125,270000.875,306012.90625,274400.03125,682590.5,202552.328125,200502.40625,221351.84375
802,284789.21875,269839.5625,305940.40625,274323.25,682509.5625,202473.640625,200426.046875,221294.890625
803,284702.5,269406.75,305653.3125,273974.1875,682217.5625,202315.9375,200111.0625,220954.0625
804,284629.375,269097.03125,305393.34375,273662.625,682057.625,202160.71875,199842.75,220638.734375
805,284698.75,269439.84375,305587.0,273887.84375,682242.0,202277.484375,200048.03125,220844.90625
806,284813.4375,269958.84375,305970.90625,274344.34375,682631.1875,202510.75,200458.40625,221297.390625
807,284905.0,269966.875,306062.53125,274433.65625,682717.4375,202610.171875,200549.34375,221415.046875
808,284885.4375,269591.8125,305840.53125,274155.15625,682433.5,202510.03125,200300.609375,221152.1875
809,284751.9375,269223.03125,305521.90625,273783.65625,682160.4375,202296.34375,199982.3125,220788.84375
810,284797.0,269570.46875,305713.6875,274012.09375,682338.625,202426.078125,200197.34375,221005.65625
811,284860.3125,270054.40625,306060.21875,274435.53125,682712.0625,202611.234375,200585.8125,221441.0625
812,284785.375,269890.4375,305990.75,274378.3125,682664.875,202501.09375,200545.046875,221415.140625
813,284701.96875,269440.53125,305697.5,274034.90625,682333.875,202323.0,200247.765625,221085.9375
814,284652.6875,269081.75,305398.5,273669.21875,682061.1875,202146.953125,199911.59375,220695.234375
815,284739.25,269422.9375,305582.5,273887.84375,682224.4375,202273.734375,200084.25,220862.0625
816,284792.875,269889.5625,305909.375,274290.0625,682537.9375,202445.125,200438.828125,221250.453125
817,284722.875,269740.5,305835.0,274211.5625,682439.5625,202376.09375,200366.234375,221186.703125
818,284622.125,269295.4375,305537.09375,273854.84375,682109.5,202206.5,200046.875,220836.3125
819,284661.28125,269107.9375,305399.6875,273666.375,682062.0,202179.234375,199909.71875,220651.0625
820,284719.40625,269447.53125,305583.84375,273884.625,682226.0625,202302.78125,200097.03125,220844.546875
821,284733.78125,269877.84375,305871.375,274246.4375,682527.4375,202428.671875,200404.59375,221208.875
822,284691.9375,269750.34375,305835.1875,274215.3125,682507.9375,202365.90625,200378.84375,221207.890625
823,284614.6875,269301.96875,305551.03125,273866.28125,682197.25,202195.59375,200073.6875,220877.625
824,284658.25,269126.90625,305419.96875,273678.09375,682125.125,202198.625,199938.234375,220699.171875
825,284805.84375,269556.5,305704.1875,274005.3125,682361.5,202414.09375,200244.015625,221009.859375
826,284813.625,269966.71875,305985.03125,274362.125,682676.6875,202530.15625,200569.71875,221380.71875
827,284746.125,269795.5,305905.90625,274284.78125,682599.75,202447.265625,200503.109375,221334.859375
828,284689.1875,269410.3125,305656.625,273984.3125,682302.75,202322.09375,200244.734375,221054.03125
829,284670.59375,269162.40625,305462.34375,273748.875,682169.625,202247.796875,200061.890625,220826.65625
830,284765.15625,269539.96875,305689.8125,274019.96875,682374.5,202407.65625,200309.640625,221082.8125
831,284838.40625,270027.6875,306041.8125,274446.90625,682745.5,202605.703125,200693.640625,221520.546875
832,284797.4375,269921.8125,306022.3125,274431.59375,682749.375,202592.015625,200688.984375,221545.046875
833,284669.15625,269353.28125,305626.3125,273955.15625,682297.875,202284.734375,200233.109375,221061.984375
834,284596.09375,268954.0,305284.15625,273536.0,681976.875,202017.40625,199827.90625,220591.703125
835,284688.8125,269332.09375,305493.03125,273775.71875,682173.125,202177.890625,200027.5625,220774.53125
836,284795.03125,269890.53125,305894.71875,274246.34375,682568.0625,202441.375,200462.96875,221237.21875
837,284731.09375,269798.09375,305882.5625,274241.53125,682579.5625,202424.03125,200482.015625,221267.171875
838,284618.375,269336.21875,305583.59375,273886.21875,682250.1875,202235.90625,200168.734375,220932.515625
839,284542.375,269031.34375,305331.46875,273582.0625,682085.75,202105.734375,199915.0,220633.90625
840,284629.09375,269405.9375,305547.8125,273831.0625,682302.75,202243.328125,200147.625,220867.34375
841,284687.375,269867.65625,305873.28125,274224.90625,682642.5,202400.234375,200499.890625,221263.0625
842,284667.4375,269755.875,305859.0625,274210.15625,682630.6875,202366.0,200493.28125,221279.859375
843,284639.1875,269403.09375,305653.25,273946.21875,682367.5,202287.140625,200289.875,221051.875
844,284708.125,269250.8125,305545.3125,273790.46875,682230.5,202298.578125,200199.046875,220911.328125
845,284754.53125,269583.875,305727.875,274017.90625,682389.3125,202411.421875,200413.265625,221130.109375
846,284774.46875,270000.875,306012.75,274383.59375,682698.6875,202536.671875,200731.90625,221496.234375
847,284669.875,269829.1875,305928.53125,274306.53125,682635.875,202445.921875,200666.28125,221459.84375
848,284559.34375,269355.53125,305615.40625,273936.46875,682307.3125,202245.03125,200336.546875,221107.671875
849,284525.28125,269060.03125,305368.46875,273632.21875,682134.6875,202104.21875,200070.203125,220790.453125
850,284610.9375,269406.125,305549.34375,273837.75,682257.0,202243.953125,200229.171875,220949.421875
851,284623.71875,269781.71875,305810.21875,274172.15625,682487.0625,202321.203125,200501.6875,221262.703125
852,284573.75,269668.1875,305775.8125,274146.03125,682447.0,202267.828125,200475.75,221250.0
853,284481.75,269245.375,305495.0,273805.84375,682178.25,202104.03125,200173.828125,220922.5
854,284460.65625,268998.78125,305295.4375,273551.65625,682090.4375,202019.546875,199964.53125,220664.84375
855,284581.4375,269411.9375,305550.5,273838.3125,682340.4375,202201.578125,200225.421875,220926.625
856,284638.5625,269874.78125,305877.03125,274231.40625,682666.1875,202366.53125,200571.0625,221313.84375
857,284537.375,269671.9375,305770.34375,274125.46875,682557.125,202246.015625,200464.140625,221224.703125
858,284466.71875,269238.5,305480.84375,273770.0,682210.25,202061.203125,200139.578125,220874.5
859,284415.5,268949.0625,305243.40625,273473.0625,682049.5,201937.828125,199890.59375,220576.765625
860,284536.03125,269347.46875,305497.125,273759.96875,682300.5625,202110.5625,200149.515625,220835.6875
861,284635.09375,269868.0,305877.8125,274213.53125,682685.6875,202326.84375,200561.59375,221292.390625
862,284606.375,269738.8125,305845.90625,274183.3125,682652.8125,202283.828125,200537.453125,221287.015625
863,284500.4375,269278.90625,305543.96875,273827.3125,682307.0625,202091.15625,200218.078125,220941.734375
864,284478.34375,269046.09375,305355.25,273594.65625,682180.4375,202028.578125,200041.953125,220720.890625
865,284544.0625,269398.71875,305551.9375,273833.03125,682342.125,202158.390625,200256.4375,220940.65625
866,284587.15625,269838.84375,305859.125,274210.6875,682658.8125,202302.515625,200585.90625,221320.640625
867,284531.1875,269680.15625,305796.71875,274150.6875,682589.5625,202230.453125,200528.953125,221284.609375
868,284431.78125,269198.34375,305470.03125,273760.25,682233.625,202020.796875,200169.625,220895.859375
869,284388.3125,268898.375,305212.0,273435.25,682038.375,201871.9375,199875.390625,220549.234375
870,284465.9375,269260.65625,305418.625,273673.78125,682232.25,202016.328125,200088.71875,220756.921875
871,284539.96875,269708.78125,305740.5,274060.65625,682518.75,202180.84375,200420.40625,221127.0625
872,284460.90625,269572.78125,305681.5,274011.84375,682460.375,202121.734375,200374.546875,221099.796875
873,284330.46875,269096.0625,305361.5,273640.15625,682160.875,201909.21875,200042.40625,220739.21875
874,284309.03125,268839.09375,305149.96875,273376.5,682041.8125,201801.75,199820.671875,220468.59375
875,284353.90625,269149.4375,305302.3125,273557.8125,682188.5,201882.390625,199969.71875,220614.953125
876,284444.90625,269643.78125,305661.375,273987.34375,682530.875,202088.296875,200350.59375,221033.90625
877,284494.1875,269616.59375,305719.5625,274046.78125,682583.125,202126.296875,200420.328125,221119.375
878,284463.78125,269241.09375,305489.625,273757.375,682299.625,202008.453125,200167.5625,220841.859375
879,284415.84375,268965.78125,305260.75,273478.625,682127.875,201881.6875,199929.75,220564.4375
880,284527.78125,269365.28125,305505.96875,273761.40625,682338.5,202062.46875,200179.90625,220827.46875
881,284579.125,269840.8125,305835.8125,274172.15625,682682.5625,202222.859375,200535.125,221236.859375
882,284502.6875,269675.0625,305769.09375,274116.53125,682627.75,202133.71875,200483.171875,221211.5625
883,284420.0625,269227.5,305480.9375,273776.78125,682298.1875,201949.0,200184.828125,220884.59375
884,284378.40625,268911.625,305210.75,273445.34375,682079.5,201784.9375,199897.65625,220541.0
885,284483.90625,269291.6875,305435.1875,273705.15625,682294.375,201941.140625,200128.59375,220761.578125
886,284565.0,269784.125,305793.5,274137.53125,682644.75,202147.75,200515.90625,221184.296875
887,284512.40625,269641.25,305738.34375,274084.6875,682571.25,202090.0,200456.71875,221145.21875
888,284389.21875,269118.9375,305375.625,273652.5,682163.9375,201824.375,200041.6875,220706.046875
889,284341.84375,268797.0,305102.125,273311.875,681941.375,201659.140625,199717.046875,220335.453125
890,284451.09375,269225.78125,305372.3125,273625.78125,682233.625,201873.09375,199998.59375,220618.078125
891,284533.15625,269743.0,305749.53125,274084.25,682623.5625,202078.828125,200414.0625,221079.59375
892,284429.34375,269548.90625,305645.28125,273981.78125,682511.25,201953.46875,200313.21875,220999.390625
893,284346.5625,269108.9375,305354.25,273631.78125,682181.0,201779.21875,199996.171875,220657.421875
894,284357.9375,268884.625,305173.21875,273400.65625,682074.125,201710.28125,199805.46875,220420.578125
895,284504.71875,269320.28125,305451.25,273718.59375,682327.25,201925.046875,200101.5,220712.9375
896,284579.125,269809.09375,305805.0625,274146.125,682689.75,202098.9375,200498.015625,221140.84375
897,284505.28125,269628.40625,305727.8125,274075.21875,682617.8125,201990.125,200440.078125,221098.546875
898,284425.78125,269192.25,305449.21875,273744.78125,682304.375,201813.828125,200145.671875,220780.703125
899,284385.625,268920.8125,305224.625,273471.625,682149.1875,201694.546875,199912.765625,220507.21875
900,284484.0625,269277.90625,305434.28125,273715.375,682307.75,201834.734375,200118.484375,220723.3125
901,284526.1875,269702.25,305724.59375,274069.78125,682576.375,201961.15625,200418.453125,221070.5625
902,284479.59375,269556.0625,305669.78125,274020.40625,682512.625,201883.921875,200363.734375,221031.21875
903,284378.21875,269050.46875,305325.1875,273601.625,682139.0,201651.71875,199970.25,220603.59375
904,284351.21875,268744.5,305072.1875,273279.5,681940.5,201500.53125,199670.921875,220258.390625
905,284495.625,269176.09375,305344.59375,273582.3125,682186.4375,201696.703125,199934.125,220524.921875
906,284531.8125,269651.90625,305669.875,273982.15625,682501.0625,201858.25,200288.359375,220921.609375
907,284417.75,269474.78125,305560.53125,273875.9375,682377.0,201725.3125,200176.6875,220833.09375
908,284272.09375,268980.71875,305216.03125,273484.5,682081.375,201487.125,199826.484375,220455.796875
909,284263.96875,268740.125,305026.125,273252.6875,682012.1875,201398.53125,199652.140625,220223.34375
910,284390.375,269157.5625,305282.28125,273548.8125,682264.5,201574.5625,199937.078125,220493.078125
911,284612.46875,269801.46875,305779.75,274119.03125,682751.6875,201909.390625,200481.390625,221060.90625
912,284619.625,269727.71875,305790.75,274137.1875,682755.375,201902.0625,200516.4375,221107.3125
913,284489.96875,269239.46875,305454.9375,273744.875,682345.9375,201658.25,200161.578125,220729.03125
914,284449.3125,268968.84375,305230.25,273472.8125,682141.9375,201536.75,199925.359375,220455.53125
915,284536.28125,269360.96875,305464.9375,273752.65625,682339.875,201695.890625,200173.5625,220717.3125
916,284588.25,269848.40625,305815.59375,274183.40625,682722.6875,201870.5,200568.375,221163.640625
917,284520.8125,269684.625,305753.0,274126.8125,682667.5625,201782.96875,200515.0,221139.9375
918,284424.4375,269189.84375,305424.0,273732.34375,682275.75,201540.234375,200147.0,220750.21875
919,284397.34375,268854.46875,305144.5,273380.71875,682020.125,201362.9375,199818.25,220369.34375
920,284498.28125,269215.6875,305350.875,273615.9375,682199.9375,201501.796875,200011.28125,220549.5
921,284559.96875,269733.90625,305715.46875,274057.96875,682559.375,201702.953125,200411.734375,220986.609375
922,284513.9375,269604.6875,305678.1875,274025.59375,682514.6875,201641.265625,200380.09375,220976.59375
923,284415.15625,269144.4375,305368.46875,273652.78125,682170.25,201435.8125,200031.40625,220606.8125
924,284391.71875,268886.125,305151.46875,273374.8125,682017.375,201327.984375,199785.890625,220317.671875
925,284483.90625,269268.34375,305374.09375,273633.71875,682203.875,201480.328125,200015.125,220546.90625
926,284542.8125,269733.1875,305707.40625,274037.9375,682527.1875,201645.015625,200375.703125,220944.5
927,284489.25,269586.46875,305653.25,273985.0,682455.375,201566.796875,200328.328125,220906.765625
928,284430.6875,269190.03125,305398.4375,273667.875,682168.0,201420.515625,200054.109375,220599.03125
929,284449.3125,268974.90625,305230.34375,273444.5625,682068.9375,201351.234375,199881.640625,220374.171875
930,284545.40625,269352.65625,305453.59375,273706.4375,682250.4375,201483.1875,200121.96875,220611.109375
931,284587.0625,269796.21875,305760.0625,274081.5625,682549.25,201610.953125,200448.046875,220979.640625
932,284547.46875,269660.9375,305722.53125,274051.09375,682500.5625,201555.078125,200412.71875,220965.6875
933,284472.1875,269255.75,305467.4375,273751.3125,682219.375,201407.46875,200149.328125,220682.0
934,284460.125,269027.125,305282.5625,273521.25,682128.4375,201326.1875,199967.03125,220462.953125
935,284575.625,269403.09375,305509.1875,273781.34375,682328.9375,201454.5,200192.875,220695.6875
936,284588.0625,269782.25,305760.25,274095.0625,682551.4375,201524.5,200458.046875,220992.609375
937,284497.3125,269541.3125,305624.28125,273950.5,682358.1875,201364.109375,200296.40625,220842.75
938,284439.90625,269114.5625,305358.28125,273622.75,682081.375,201204.953125,199993.046875,220511.40625
939,284397.34375,268832.84375,305126.4375,273333.15625,681935.75,201075.671875,199739.9375,220207.703125
940,284505.1875,269200.65625,305340.40625,273573.21875,682129.5,201210.328125,199936.1875,220404.578125
941,284602.375,269709.65625,305705.90625,274011.75,682456.375,201426.15625,200309.8125,220825.671875
942,284527.09375,269577.96875,305651.96875,273968.46875,682390.3125,201350.953125,200261.71875,220804.765625
943,284361.6875,269099.625,305304.90625,273563.71875,682064.3125,201134.328125,199905.34375,220422.71875
944,284303.5625,268813.34375,305073.4375,273292.1875,681962.3125,200952.296875,199706.40625,220159.0625
945,284473.71875,269260.03125,305364.0,273617.46875,682239.3125,201120.5625,200028.1875,220461.25
946,284634.09375,269836.4375,305796.09375,274116.34375,682663.0,201396.375,200493.640625,220962.109375
947,284691.3125,269799.0625,305863.0625,274189.5625,682731.3125,201446.984375,200578.21875,221070.75
948,284543.1875,269282.75,305507.59375,273774.5625,682305.25,201192.359375,200189.203125,220673.0625
949,284502.9375,269024.1875,305295.15625,273516.875,682130.8125,201082.734375,199963.359375,220420.3125
950,284598.59375,269409.4375,305526.8125,273785.90625,682324.0625,201243.140625,200202.171875,220674.046875
951,284621.59375,269861.65625,305835.53125,274170.4375,682653.6875,201383.5,200549.609375,221068.421875
952,284558.8125,269671.5625,305745.59375,274081.9375,682542.8125,201257.984375,200457.421875,220994.296875
953,284516.1875,269250.65625,305482.375,273761.9375,682216.6875,201093.46875,200162.109375,220669.75
954,284486.9375,268980.28125,305260.28125,273482.71875,682058.125,200985.28125,199929.84375,220386.515625
955,284564.4375,269340.15625,305465.125,273727.34375,682244.3125,201108.40625,200141.46875,220597.421875
956,284610.78125,269754.53125,305746.03125,274065.9375,682482.9375,201209.34375,200415.765625,220915.09375
957,284514.28125,269535.75,305627.75,273940.84375,682320.0,201073.984375,200271.546875,220789.015625
958,284434.09375,269124.84375,305358.8125,273620.0625,682053.125,200907.328125,199975.34375,220470.203125
959,284442.875,268965.625,305225.5,273445.34375,682024.8125,200879.96875,199859.5625,220304.25
960,284528.96875,269351.84375,305448.125,273702.5625,682242.9375,201025.703125,200103.375,220541.28125
961,284565.34375,269793.96875,305753.90625,274079.0625,682547.5,201158.015625,200447.6875,220919.375
962,284502.75,269644.65625,305693.90625,274023.375,682485.3125,201067.890625,200407.453125,220893.453125
963,284488.625,269278.90625,305480.5,273753.71875,682200.6875,200963.109375,200183.9375,220639.359375
964,284633.9375,269219.53125,305451.25,273676.84375,682145.3125,201049.125,200164.0,220568.546875
965,284757.5625,269646.0,305707.9375,273970.0,682335.125,201225.078125,200435.609375,220845.4375
966,284758.75,270050.3125,305995.03125,274344.4375,682664.75,201328.078125,200769.015625,221236.59375
967,284688.375,269875.6875,305919.9375,274286.59375,682598.6875,201224.09375,200701.515625,221205.03125
968,284586.09375,269393.4375,305598.53125,273915.09375,682224.6875,201008.078125,200344.6875,220837.84375
969,284545.15625,269087.21875,305348.0,273604.21875,682041.8125,200846.890625,200073.421875,220525.8125
970,284638.84375,269440.375,305547.75,273826.59375,682232.9375,200976.25,200269.765625,220717.3125
971,284683.625,269883.375,305852.4375,274199.40625,682512.4375,201108.578125,200596.546875,221076.640625
972,284593.78125,269652.875,305722.875,274063.4375,682337.625,200933.78125,200448.484375,220936.359375
973,284522.53125,269225.53125,305443.75,273721.0,682061.8125,200758.453125,200123.140625,220582.9375
974,284488.8125,268999.5,305254.125,273488.90625,681981.5,200683.0,199925.015625,220347.0
975,284584.03125,269384.9375,305486.59375,273756.40625,682206.125,200847.15625,200151.484375,220590.625
976,284647.15625,269863.1875,305826.875,274162.40625,682540.6875,201019.890625,200501.328125,220998.328125
977,284585.375,269718.15625,305769.375,274100.625,682469.75,200944.25,200434.09375,220961.40625
978,284577.25,269359.28125,305563.75,273836.25,682203.25,200833.203125,200216.125,220714.015625
979,284605.5,269171.15625,305415.9375,273639.09375,682105.625,200776.25,200086.484375,220522.859375
980,284662.53125,269519.40625,305599.875,273861.28125,682257.0,200879.875,200295.59375,220720.71875
981,284715.1875,269972.4375,305922.8125,274258.15625,682588.25,201039.015625,200658.234375,221117.140625
982,284659.40625,269810.0625,305860.46875,274198.875,682522.0625,200951.671875,200604.5,221085.234375
983,284646.96875,269450.5625,305646.8125,273932.25,682241.6875,200847.875,200363.109375,220828.890625
984,284611.40625,269217.75,305448.5,273694.96875,682119.3125,200769.015625,200175.703125,220602.609375
985,284687.46875,269556.59375,305643.40625,273921.625,682285.625,200892.296875,200377.234375,220809.859375
986,284755.34375,270021.0625,305974.125,274320.125,682612.5,201061.1875,200735.125,221211.109375
987,284686.5,269843.40625,305897.84375,274248.5,682527.0,200970.171875,200668.875,221162.921875
988,284569.09375,269331.1875,305549.96875,273836.96875,682150.0,200722.15625,200287.546875,220750.75
989,284511.625,269014.25,305280.21875,273504.71875,681942.1875,200556.765625,199987.59375,220397.0625
990,284619.53125,269404.96875,305510.4375,273767.125,682141.5625,200720.015625,200214.6875,220619.234375
991,284650.28125,269833.21875,305794.15625,274121.1875,682388.3125,200836.421875,200500.171875,220946.921875
992,284586.8125,269687.9375,305731.1875,274058.875,682296.5,200757.125,200426.671875,220900.875
993,284559.53125,269319.59375,305519.21875,273790.375,682073.0625,200659.75,200202.890625,220650.078125
994,284555.96875,269099.625,305342.09375,273563.46875,681999.6875,200595.828125,200028.984375,220422.453125
995,284690.4375,269528.34375,305613.09375,273871.8125,682260.3125,200797.984375,200313.125,220707.75
996,284736.90625,269985.65625,305930.84375,274262.53125,682582.625,200946.125,200657.34375,221101.671875
997,284671.5625,269823.03125,305859.125,274190.90625,682498.3125,200862.0,200583.578125,221052.59375
998,284662.0,269460.40625,305643.21875,273913.84375,682198.8125,200773.125,200329.84375,220780.171875
999,284773.65625,269363.46875,305577.40625,273795.125,682120.8125,200862.0,200240.53125,220658.21875
1000,284834.46875,269714.75,305780.90625,274052.78125,682278.4375,200988.234375,200459.21875,220890.59375
1001,284810.78125,270080.34375,306036.4375,274394.3125,682581.6875,201036.34375,200778.484375,221253.578125
1002,284737.375,269902.875,305962.84375,274328.53125,682523.4375,200948.984375,200725.015625,221224.078125
1003,284659.3125,269455.65625,305671.75,273977.6875,682203.0625,200773.125,200409.421875,220886.921875
1004,284646.25,269180.90625,305442.875,273686.03125,682036.0625,200658.953125,200153.265625,220584.28125
1005,284746.40625,269528.53125,305629.28125,273893.46875,682155.875,200785.109375,200314.828125,220742.625
1006,284794.5,269950.78125,305913.3125,274242.15625,682378.3125,200919.65625,200596.28125,221058.671875
1007,284738.53125,269797.0,305851.625,274188.6875,682279.5,200850.8125,200527.796875,221006.109375
1008,284650.28125,269388.78125,305591.625,273879.78125,682052.875,200704.734375,200258.140625,220711.5
1009,284626.78125,269160.25,305403.15625,273642.0625,681983.375,200626.765625,200072.890625,220479.40625
1010,284690.25,269515.375,305600.84375,273874.40625,682169.3125,200760.609375,200279.59375,220689.15625
1011,284686.9375,269917.625,305866.125,274211.3125,682430.25,200862.078125,200566.5,221019.25
1012,284624.1875,269766.0,305808.90625,274159.71875,682368.125,200791.09375,200510.0,220984.90625
1013,284659.84375,269444.75,305640.375,273928.59375,682147.8125,200735.21875,200312.953125,220760.59375
1014,284662.53125,269221.21875,305462.96875,273694.1875,682038.0625,200668.96875,200121.34375,220526.34375
1015,284777.15625,269610.59375,305703.84375,273965.6875,682247.6875,200854.3125,200354.875,220773.28125
1016,284921.71875,270168.15625,306123.15625,274454.21875,682662.875,201129.40625,200783.5,221260.203125
1017,284924.84375,270076.15625,306127.0,274464.9375,682663.8125,201124.5,200782.6875,221295.953125
1018,284813.0,269624.8125,305829.1875,274120.71875,682313.5,200940.765625,200468.25,220969.53125
1019,284737.46875,269354.28125,305602.375,273857.875,682151.875,200818.984375,200264.390625,220718.65625
1020,284810.6875,269701.34375,305798.53125,274092.125,682322.875,200960.15625,200473.078125,220928.59375
1021,284861.03125,270125.03125,306089.1875,274449.03125,682599.0,201094.0,200773.484375,221272.53125
1022,284786.625,269901.8125,305958.03125,274302.5,682413.8125,200941.484375,200607.453125,221122.59375
1023,284711.71875,269430.53125,305643.9375,273918.75,682057.4375,200752.921875,200228.28125,220711.859375
1024,284686.6875,269142.375,305404.9375,273621.03125,681873.375,200643.484375,199937.53125,220374.265625
1025,284791.71875,269569.03125,305667.09375,273932.53125,682128.125,200856.265625,200191.984375,220639.0
1026,284819.1875,270028.9375,305994.9375,274343.4375,682457.0625,201035.265625,200552.015625,221047.765625
1027,284701.59375,269840.375,305884.625,274235.0,682354.25,200932.625,200457.96875,220962.296875
1028,284591.71875,269393.875,305584.03125,273880.5,682064.9375,200749.703125,200147.0,220622.1875
1029,284554.4375,269118.875,305356.40625,273601.90625,681948.4375,200622.734375,199911.59375,220340.5625
1030,284610.40625,269460.65625,305539.78125,273819.0625,682129.75,200749.078125,200092.296875,220528.484375
1031,284723.96875,269983.875,305927.1875,274279.53125,682518.3125,200981.984375,200507.140625,220989.828125
1032,284942.1875,270122.28125,306147.75,274496.96875,682735.875,201197.71875,200738.875,221238.828125
1033,285069.875,269908.15625,306064.96875,274348.90625,682559.625,201276.578125,200624.53125,221102.484375
1034,284897.3125,269504.03125,305711.4375,273952.8125,682182.5,201042.59375,200273.96875,220706.40625
1035,284921.1875,269814.71875,305879.15625,274173.03125,682325.5,201118.0625,200478.265625,220904.796875
1036,284939.875,270243.15625,306188.96875,274570.53125,682666.625,201261.28125,200837.234375,221306.421875
1037,284836.875,269993.53125,306046.625,274418.0,682497.6875,201116.984375,200683.0,221176.6875
1038,284755.78125,269528.53125,305738.1875,274049.03125,682144.1875,200946.65625,200335.390625,220803.59375
1039,284744.53125,269268.4375,305528.25,273787.78125,682009.75,200867.453125,200104.8125,220524.46875
1040,284833.46875,269659.3125,305748.71875,274044.5625,682206.0,201033.828125,200330.921875,220747.890625
1041,284895.15625,270121.03125,306072.1875,274436.96875,682513.75,201216.140625,200678.171875,221130.28125
1042,284819.71875,269944.09375,305988.0625,274348.0,682412.5,201139.609375,200593.859375,221058.046875
1043,284755.0625,269525.75,305712.59375,274005.03125,682109.5,200992.53125,200285.3125,220719.46875
1044,284744.875,269313.59375,305534.875,273777.0625,682024.6875,200942.734375,200110.53125,220496.21875
1045,284870.5,269735.9375,305798.4375,274078.09375,682247.0625,201146.21875,200391.890625,220779.71875
1046,284911.09375,270180.5625,306116.1875,274466.84375,682579.5,201316.265625,200749.4375,221181.875
1047,284836.59375,270000.5,306033.5625,274379.5625,682492.3125,201236.25,200677.28125,221127.34375
1048,284740.5,269542.46875,305731.28125,274013.28125,682148.375,201047.78125,200358.71875,220777.40625
1049,284721.09375,269289.53125,305520.1875,273748.34375,682009.25,200946.484375,200146.828125,220514.359375
1050,284862.09375,269717.875,305791.46875,274062.1875,682241.6875,201169.28125,200433.46875,220800.28125
1051,284949.09375,270212.3125,306152.3125,274498.5625,682612.375,201381.984375,200838.296875,221250.09375
1052,284881.03125,270039.46875,306078.46875,274430.0,682532.75,201298.5625,200772.40625,221210.484375
1053,284798.25,269587.625,305784.65625,274078.71875,682190.8125,201111.96875,200453.5,220874.671875
1054,284758.75,269310.1875,305557.125,273797.78125,682028.3125,201008.890625,200216.46875,220596.890625
1055,284870.21875,269698.5625,305793.34375,274069.3125,682227.5625,201187.4375,200456.4375,220849.1875
1056,284935.3125,270168.59375,306132.28125,274481.84375,682564.0,201358.03125,200816.21875,221266.90625
1057,284905.0,270044.75,306110.375,274466.75,682538.8125,201330.9375,200794.484375,221281.921875
1058,284805.3125,269580.90625,305805.9375,274104.90625,682189.125,201149.078125,200462.171875,220939.140625
1059,284751.84375,269282.5625,305550.59375,273789.5625,681996.8125,201009.34375,200183.21875,220623.265625
1060,284851.625,269660.21875,305764.625,274032.9375,682175.625,201162.21875,200385.90625,220832.390625
1061,284886.5,270101.25,306057.28125,274395.3125,682442.4375,201305.984375,200690.421875,221183.75
1062,284789.9375,269881.9375,305948.28125,274291.59375,682312.0,201188.78125,200576.609375,221091.671875
1063,284728.96875,269471.84375,305692.84375,273977.25,682040.625,201059.671875,200297.84375,220787.234375
1064,284777.6875,269307.5,305569.90625,273799.125,681997.875,201062.0,200176.515625,220615.21875
1065,284931.375,269770.5625,305873.0,274138.875,682260.5,201291.234375,200507.140625,220945.484375
1066,284972.0625,270239.21875,306196.375,274537.8125,682603.8125,201451.984375,200872.1875,221355.953125
1067,284897.40625,270075.15625,306112.53125,274455.5625,682522.0625,201358.03125,200801.203125,221303.65625
1068,284804.875,269609.09375,305797.28125,274075.125,682160.0,201160.703125,200460.46875,220932.515625
1069,284791.8125,269356.0625,305591.90625,273812.8125,682020.9375,201080.859375,200246.34375,220669.3125
1070,284906.6875,269764.03125,305840.8125,274102.9375,682242.4375,201271.65625,200516.078125,220937.703125
1071,284954.625,270202.75,306150.6875,274485.78125,682549.375,201419.0,200857.96875,221321.53125
1072,284884.71875,270010.34375,306057.4375,274385.125,682425.8125,201327.53125,200756.40625,221234.453125
1073,284803.25,269568.9375,305771.34375,274038.125,682094.4375,201165.4375,200442.3125,220890.59375
1074,284792.4375,269353.8125,305591.09375,273812.28125,682007.4375,201093.109375,200276.640625,220671.8125
1075,284895.78125,269745.96875,305824.4375,274078.28125,682200.5625,201253.0625,200528.78125,220914.015625
1076,284944.625,270214.53125,306157.75,274485.5,682548.25,201428.65625,200903.203125,221327.15625
1077,284870.59375,270032.78125,306072.8125,274400.84375,682454.5625,201335.5,200821.140625,221268.953125
1078,284820.6875,269610.5,305804.4375,274068.6875,682135.375,201192.078125,200517.0625,220946.203125
1079,284776.875,269329.0625,305572.15625,273784.75,681977.5,201078.359375,200270.65625,220657.234375
1080,284886.5,269721.28125,305815.40625,274066.46875,682192.375,201249.65625,200518.9375,220912.9375
1081,284942.71875,270182.96875,306149.0,274476.40625,682526.375,201428.203125,200874.953125,221322.421875
1082,284879.15625,270020.625,306082.65625,274417.46875,682457.5,201341.75,200809.15625,221285.40625
1083,284799.3125,269578.6875,305792.96875,274073.875,682126.125,201157.125,200484.25,220952.28125
1084,284769.90625,269309.375,305573.3125,273803.0625,681990.5,201061.015625,200250.8125,220683.609375
1085,284887.3125,269712.625,305818.90625,274085.15625,682215.0,201248.234375,200501.6875,220943.15625
1086,285002.8125,270242.0,306210.34375,274552.5625,682612.9375,201473.53125,200924.84375,221413.796875
1087,284948.90625,270087.0625,306144.625,274487.84375,682536.8125,201404.96875,200863.328125,221372.21875
1088,284857.4375,269637.0625,305839.90625,274127.625,682172.6875,201220.25,200535.390625,221014.6875
1089,284824.34375,269371.53125,305625.53125,273871.75,682023.1875,201113.046875,200326.984375,220756.828125
1090,284934.40625,269765.28125,305864.15625,274157.5625,682220.0625,201286.3125,200575.09375,221010.578125
1091,284967.5,270202.28125,306158.375,274523.15625,682517.0625,201429.109375,200895.515625,221375.703125
1092,284901.25,270034.125,306080.875,274442.59375,682429.1875,201346.84375,200819.796875,221319.828125
1093,284825.6875,269589.78125,305788.34375,274088.375,682095.0625,201162.484375,200494.078125,220973.921875
1094,284808.71875,269313.0625,305559.4375,273799.59375,681926.25,201047.328125,200233.28125,220670.640625
1095,284915.5625,269686.59375,305783.9375,274061.53125,682123.75,201207.46875,200455.28125,220892.640625
1096,284930.9375,270096.625,306059.6875,274413.53125,682382.3125,201330.3125,200746.03125,221229.359375
1097,284881.03125,269952.125,306009.4375,274370.96875,682321.25,201271.125,200697.578125,221200.734375
1098,284832.6875,269541.75,305744.96875,274050.28125,682038.125,201115.734375,200404.3125,220880.484375
1099,284854.03125,269335.21875,305574.375,273829.1875,681941.375,201069.859375,200217.90625,220647.40625
1100,285038.5,269817.125,305891.15625,274186.53125,682209.9375,201312.15625,200540.390625,220974.359375
1101,285172.875,270360.1875,306293.84375,274663.0625,682616.3125,201556.5,200961.5,221445.984375
1102,285152.5625,270237.4375,306265.75,274636.0625,682577.9375,201519.671875,200925.921875,221436.0625
1103,285099.03125,269855.21875,306023.8125,274339.4375,682268.8125,201404.421875,200655.828125,221152.46875
1104,285058.96875,269624.8125,305801.75,274066.8125,682065.125,201336.390625,200403.15625,220871.8125
1105,285122.53125,269958.65625,305996.46875,274311.875,682254.3125,201468.171875,200597.34375,221083.265625
1106,285135.21875,270300.65625,306246.1875,274638.9375,682493.0,201496.15625,200870.9375,221395.015625
1107,285037.78125,270042.4375,306089.8125,274474.78125,682262.4375,201300.265625,200682.109375,221214.59375
1108,284982.78125,269675.78125,305867.46875,274207.09375,682041.8125,201216.140625,200463.6875,220956.484375
1109,284966.25,269397.90625,305640.4375,273927.53125,681903.9375,201116.265625,200219.34375,220660.71875
1110,285064.78125,269736.3125,305819.25,274132.0,682032.9375,201242.875,200365.875,220806.28125
1111,285130.75,270241.8125,306160.875,274547.375,682338.8125,201445.46875,200719.390625,221198.15625
1112,285079.0,270139.875,306151.6875,274552.5625,682345.4375,201436.171875,200737.453125,221231.046875
1113,284981.0,269687.03125,305859.0625,274207.5625,682051.1875,201262.53125,200433.109375,220899.171875
1114,284950.25,269424.625,305638.75,273932.34375,681923.6875,201163.390625,200204.234375,220622.375
1115,285046.09375,269810.4375,305874.34375,274203.25,682134.25,201315.28125,200443.390625,220870.109375
1116,285139.6875,270316.5625,306248.25,274643.84375,682507.3125,201530.125,200832.125,221318.484375
1117,285121.46875,270204.25,306234.03125,274625.53125,682496.75,201525.390625,200820.515625,221336.1875
1118,285065.59375,269787.8125,305976.71875,274307.78125,682180.8125,201392.171875,200537.359375,221035.25
1119,285042.0625,269549.4375,305775.09375,274050.5625,682019.8125,201313.765625,200323.046875,220784.546875
1120,285120.46875,269909.75,305989.75,274305.0,682212.9375,201462.90625,200546.921875,221021.21875
1121,285215.4375,270417.40625,306363.40625,274755.96875,682600.5625,201680.34375,200945.40625,221476.296875
1122,285149.09375,270226.53125,306275.0625,274664.40625,682498.0625,201594.234375,200849.125,221407.71875
1123,285046.71875,269718.875,305933.09375,274256.625,682089.625,201383.953125,200450.1875,220989.734375
1124,285014.78125,269468.4375,305722.09375,273986.28125,681954.625,201316.0,200225.78125,220718.21875
1125,285089.28125,269815.34375,305921.8125,274220.34375,682132.4375,201446.71875,200436.0625,220927.15625
1126,285141.5,270281.96875,306256.71875,274629.8125,682467.375,201619.8125,200803.078125,221338.078125
1127,285056.1875,270089.90625,306164.46875,274532.90625,682362.9375,201528.703125,200713.21875,221267.703125
1128,284987.78125,269639.375,305868.78125,274165.4375,682023.125,201360.703125,200373.921875,220901.765625
1129,284947.03125,269408.28125,305660.75,273907.5,681911.6875,201275.140625,200164.171875,220645.34375
1130,285012.90625,269774.75,305867.71875,274149.625,682100.1875,201418.546875,200387.25,220871.09375
1131,285057.25,270235.375,306192.1875,274544.15625,682432.125,201605.953125,200751.21875,221277.90625
1132,285004.96875,270080.0625,306134.6875,274483.28125,682373.3125,201559.453125,200708.921875,221252.0625
1133,284983.15625,269697.6875,305910.0,274197.0,682097.5625,201449.671875,200473.78125,220986.609375
1134,285014.09375,269507.96875,305762.40625,273999.84375,681997.0,201421.59375,200336.375,220799.296875
1135,285177.0625,269968.59375,306057.8125,274330.84375,682242.4375,201680.0625,200654.21875,221117.59375
1136,285204.15625,270408.09375,306365.375,274711.53125,682566.1875,201830.546875,201005.9375,221513.21875
1137,285107.59375,270214.375,306270.9375,274622.40625,682476.1875,201713.15625,200931.546875,221461.625
1138,285019.28125,269764.375,305974.75,274263.6875,682123.6875,201545.875,200614.15625,221125.109375
1139,284979.65625,269502.875,305765.71875,274015.3125,681993.0625,201450.296875,200420.234375,220885.84375
1140,285064.59375,269858.0,305971.875,274263.25,682166.625,201592.09375,200641.0625,221106.859375
1141,285112.6875,270292.0625,306267.09375,274621.3125,682440.0,201751.59375,200952.296875,221458.5
1142,285037.40625,270118.0625,306185.46875,274545.59375,682346.3125,201648.859375,200877.90625,221399.9375
1143,284962.21875,269701.4375,305911.4375,274217.46875,682043.875,201487.03125,200582.953125,221076.375
1144,284945.25,269457.71875,305722.53125,273983.40625,681952.1875,201421.953125,200394.84375,220839.265625
1145,285013.625,269770.0,305889.09375,274176.4375,682064.0625,201539.703125,200544.421875,220990.1875
1146,285049.75,270223.3125,306196.375,274555.875,682348.375,201702.421875,200861.640625,221357.734375
1147,284988.78125,270071.5,306135.3125,274500.8125,682292.75,201605.140625,200808.34375,221329.578125
1148,284887.65625,269614.1875,305826.3125,274129.3125,681984.5,201414.53125,200459.75,220958.625
1149,284895.625,269399.875,305657.53125,273907.5,681913.0625,201354.625,200272.0,220731.625
1150,285017.46875,269811.84375,305916.625,274199.84375,682145.0625,201538.53125,200539.234375,221001.71875
1151,285172.96875,270371.8125,306344.875,274697.0625,682571.6875,201814.71875,200992.53125,221497.578125
1152,285187.1875,270298.125,306351.9375,274710.0,682565.5625,201827.140625,200993.6875,221527.53125
1153,285063.96875,269859.15625,306053.40625,274363.75,682225.1875,201658.703125,200687.65625,221207.0
1154,284995.03125,269582.0,305824.625,274091.21875,682048.25,201546.140625,200472.171875,220948.703125
1155,285089.0,269945.875,306054.5,274365.34375,682259.75,201694.28125,200728.78125,221207.09375
1156,285137.8125,270381.1875,306356.6875,274742.5625,682565.625,201822.671875,201059.21875,221576.96875
1157,285046.0,270138.46875,306213.1875,274589.59375,682385.5,201669.78125,200903.84375,221437.21875
1158,284972.15625,269656.46875,305883.90625,274186.53125,682001.9375,201469.0625,200519.46875,221018.0
1159,284966.4375,269413.1875,305691.9375,273943.96875,681874.3125,201409.171875,200303.203125,220749.328125
1160,285064.6875,269802.46875,305932.09375,274221.125,682073.625,201585.203125,200548.71875,220992.15625
1161,285153.90625,270299.46875,306278.625,274631.34375,682390.9375,201773.140625,200908.3125,221390.015625
1162,285150.0625,270225.1875,306269.4375,274624.1875,682352.6875,201767.234375,200886.21875,221392.609375
1163,285001.65625,269738.4375,305937.0,274245.625,682018.375,201540.59375,200541.375,221029.078125
1164,284899.71875,269408.4375,305657.875,273917.34375,681842.5625,201351.859375,200259.390625,220701.21875
1165,285114.75,269896.4375,306004.15625,274296.40625,682180.875,201629.109375,200622.03125,221059.125
1166,285387.625,270595.96875,306555.4375,274910.1875,682737.1875,202036.796875,201213.1875,221683.8125
1167,285423.84375,270549.375,306593.625,274943.0,682776.625,202081.59375,201259.5,221751.125
1168,285412.9375,270177.53125,306384.59375,274684.90625,682491.3125,201985.390625,201028.296875,221512.59375
1169,285338.90625,269901.96875,306162.9375,274433.21875,682182.3125,201875.78125,200816.21875,221280.40625
1170,285379.5625,270248.59375,306354.71875,274674.0625,682343.8125,202001.3125,201025.703125,221521.890625
