Unnamed: 0,EEG 1,EEG 2,EEG 3,EEG 4,EEG 5,EEG 6,EEG 7,EEG 8
0,286533.5625,270339.71875,306632.40625,274617.46875,681414.5,202403.640625,200617.28125,221456.890625
1,286554.375,270560.5625,306686.78125,274685.4375,681485.125,202440.109375,200651.4375,221448.40625
2,286609.09375,271109.40625,307076.9375,275183.4375,681892.6875,202665.421875,201086.671875,221895.34375
3,286650.75,271151.53125,307143.46875,275271.40625,681907.75,202643.875,201132.546875,221949.25
4,286572.4375,270833.96875,306897.25,274988.96875,681713.125,202462.015625,200821.40625,221610.3125
5,286534.28125,270520.40625,306687.0625,274756.5,681558.75,202371.984375,200608.171875,221339.859375
6,286529.34375,270705.375,306801.9375,274916.09375,681744.6875,202461.578125,200788.5,221485.234375
7,286681.0,271291.0,307232.6875,275439.9375,682118.4375,202701.8125,201240.71875,221959.0
8,286725.15625,271376.21875,307302.09375,275527.03125,682102.9375,202678.5625,201266.375,222000.484375
9,286561.8125,270927.5625,306947.75,275106.1875,681761.25,202382.53125,200848.3125,221551.484375
10,286499.5,270525.15625,306668.53125,274788.25,681522.875,202253.171875,200546.296875,221182.5
11,286525.5,270709.0625,306786.46875,274952.03125,681693.25,202364.65625,200704.640625,221305.171875
12,286712.71875,271391.6875,307254.5,275482.65625,682091.5,202651.5625,201177.875,221803.078125
13,286719.53125,271559.03125,307336.84375,275575.65625,682078.625,202641.109375,201216.40625,221863.0625
14,286536.40625,271049.78125,306981.03125,275171.09375,681758.4375,202366.984375,200834.1875,221463.15625
15,286469.71875,270669.8125,306762.96875,274928.625,681651.6875,202283.828125,200628.015625,221208.34375
16,286529.53125,270867.03125,306929.34375,275143.5625,681845.75,202481.328125,200840.171875,221401.109375
17,286698.78125,271487.34375,307361.0,275634.46875,682228.75,202697.609375,201299.1875,221892.21875
18,286691.71875,271490.90625,307419.125,275701.09375,682245.5625,202664.078125,201359.09375,221980.453125
19,286687.15625,271082.59375,307210.71875,275460.3125,681969.5625,202541.328125,201111.171875,221718.234375
20,286634.5,270886.875,306991.75,275179.75,681817.3125,202427.0625,200886.84375,221445.890625
21,286789.25,271195.875,307179.875,275380.46875,681979.375,202603.90625,201093.640625,221631.59375
22,286906.125,271745.8125,307567.0,275843.25,682299.5625,202786.125,201492.140625,222068.53125
23,286826.0,271688.40625,307580.84375,275909.3125,682304.0,202736.40625,201532.640625,222141.578125
24,286683.125,271245.125,307285.4375,275576.71875,681958.4375,202542.484375,201200.125,221795.484375
25,286690.5625,270974.40625,307055.40625,275286.875,681797.875,202411.859375,200953.8125,221497.390625
26,286788.71875,271308.25,307266.84375,275562.5,681987.625,202621.34375,201195.921875,221715.375
27,286805.0,271665.09375,307562.0625,275938.75,682252.0,202779.5,201539.25,222093.375
28,286665.875,271487.96875,307427.53125,275777.90625,682048.5,202600.0625,201376.703125,221959.0
29,286663.0,271124.53125,307186.9375,275464.53125,681781.6875,202458.984375,201058.328125,221623.8125
30,286607.40625,270884.75,307029.3125,275294.90625,681758.125,202442.796875,200941.5625,221452.875
31,286712.1875,271208.46875,307154.375,275416.78125,681878.0625,202523.796875,201073.0,221553.625
32,286685.09375,271709.96875,307451.03125,275778.4375,682158.8125,202664.265625,201416.578125,221922.96875
33,286625.65625,271679.9375,307510.03125,275895.03125,682238.6875,202659.34375,201521.109375,222057.078125
34,286691.625,271274.5625,307315.3125,275648.15625,681952.5625,202523.53125,201253.78125,221785.46875
35,286673.84375,271015.4375,307138.09375,275427.5,681829.4375,202516.46875,201079.515625,221565.796875
36,286825.5625,271383.8125,307359.5625,275642.09375,682016.75,202760.640625,201347.5625,221810.671875
37,287021.09375,272074.03125,307829.75,276183.96875,682438.3125,203061.3125,201832.5,222331.109375
38,286986.03125,272036.3125,307901.8125,276336.40625,682509.5,203012.234375,201913.421875,222462.359375
39,286738.28125,271465.4375,307547.0625,275979.78125,682154.1875,202780.484375,201583.953125,222142.734375
40,286737.5,271164.03125,307267.3125,275580.40625,681878.8125,202625.09375,201268.96875,221795.921875
41,286856.40625,271445.6875,307429.40625,275741.6875,682030.5,202794.171875,201442.515625,221963.109375
42,286876.25,271952.4375,307773.34375,276173.34375,682382.625,202957.15625,201842.15625,222403.4375
43,286804.90625,271761.09375,307712.375,276159.9375,682292.1875,202797.125,201766.609375,222358.828125
44,286742.40625,271366.5625,307391.3125,275771.0,681846.625,202583.171875,201311.0,221885.421875
45,286610.96875,271012.21875,307123.1875,275436.28125,681699.8125,202485.0,201074.78125,221589.484375
46,286639.9375,271227.78125,307218.21875,275532.125,681854.8125,202573.0625,201228.203125,221718.5
47,286761.1875,271855.15625,307608.125,275979.78125,682182.8125,202817.421875,201621.421875,222142.828125
48,286525.78125,271674.8125,307536.25,275968.59375,682141.3125,202707.359375,201598.96875,222156.953125
49,286563.0625,271209.375,307334.4375,275746.15625,681914.125,202515.484375,201386.8125,221947.375
50,286637.25,271088.5,307204.09375,275564.03125,681813.4375,202484.8125,201230.4375,221743.265625
51,286784.875,271369.0625,307390.5,275758.9375,681955.0,202652.90625,201431.0625,221923.234375
52,287036.09375,272112.28125,307957.0625,276402.3125,682486.0625,203066.0625,202024.28125,222558.03125
53,286938.46875,272123.21875,308013.125,276484.375,682627.75,203101.90625,202167.15625,222737.375
54,286871.0625,271554.5,307685.90625,276059.625,682225.625,202901.28125,201814.09375,222381.1875
55,286786.40625,271222.25,307383.8125,275668.46875,681894.875,202723.453125,201479.703125,222020.6875
56,286726.65625,271411.96875,307431.625,275739.0,682004.0,202777.09375,201574.65625,222110.28125
57,286853.0,271874.65625,307812.9375,276232.625,682371.5,202893.40625,201996.390625,222581.359375
58,286814.125,271841.3125,307827.96875,276267.65625,682348.8125,202852.015625,202002.640625,222623.828125
59,286794.96875,271500.3125,307594.53125,275955.53125,682020.25,202721.484375,201728.96875,222339.34375
60,286791.9375,271226.8125,307401.78125,275708.4375,681859.9375,202667.5625,201543.09375,222110.09375
61,286856.40625,271488.3125,307569.84375,275932.75,682005.875,202819.203125,201745.421875,222303.671875
62,286909.5,272008.3125,307901.03125,276344.09375,682329.875,202996.578125,202120.484375,222718.78125
63,286917.09375,272068.125,307954.5625,276354.125,682356.25,202997.921875,202165.453125,222804.796875
64,286788.625,271539.65625,307592.5625,275949.71875,681965.625,202712.546875,201761.34375,222397.0
65,286629.5,271159.5625,307276.0625,275600.875,681753.625,202507.984375,201460.390625,222051.8125
66,286725.78125,271321.40625,307446.125,275813.21875,681977.25,202685.359375,201731.296875,222298.21875
67,286803.125,271817.625,307803.75,276253.09375,682338.8125,202819.375,202149.0,222752.671875
68,286731.40625,271800.1875,307787.75,276252.375,682303.0625,202747.59375,202129.421875,222766.078125
69,286634.40625,271451.03125,307557.96875,275967.34375,682001.9375,202667.390625,201874.53125,222513.765625
70,286747.25,271345.28125,307526.75,275896.90625,681936.1875,202770.65625,201881.5,222494.546875
71,286986.9375,271696.5625,307786.5,276182.46875,682114.75,202956.4375,202149.359375,222774.578125
72,286960.5625,272128.84375,308013.5,276456.59375,682322.5,203020.453125,202366.09375,223059.515625
73,286804.09375,272030.40625,307972.625,276432.8125,682321.75,202959.03125,202344.359375,223103.140625
74,286664.8125,271554.5625,307637.0,276049.0625,681966.875,202683.84375,201948.109375,222729.515625
75,286680.625,271304.5,307412.40625,275777.96875,681825.8125,202535.0625,201686.59375,222439.75
76,286764.3125,271547.59375,307603.03125,276049.96875,682063.4375,202692.78125,201936.046875,222677.828125
77,286837.96875,272132.3125,307898.5,276359.5625,682327.375,202823.84375,202260.234375,223021.328125
78,286670.625,271996.875,307794.0,276266.6875,682180.5625,202656.21875,202150.171875,222929.6875
79,286542.03125,271251.125,307426.625,275898.59375,681814.6875,202403.640625,201762.859375,222523.96875
80,286515.59375,270897.96875,307144.0,275550.1875,681615.5625,202258.703125,201456.109375,222162.5
81,286570.3125,271286.875,307305.84375,275706.375,681799.3125,202432.703125,201633.671875,222319.140625
82,286467.3125,271782.375,307599.71875,276115.03125,682121.6875,202577.359375,201994.875,222716.8125
83,286385.125,271618.9375,307558.9375,276080.90625,682166.0,202451.46875,202021.609375,222772.515625
84,286500.5625,271303.96875,307326.9375,275726.125,681838.125,202285.359375,201687.3125,222418.203125
85,286567.25,271339.8125,307287.59375,275616.78125,681788.875,202438.0625,201634.015625,222306.703125
86,286725.78125,271683.84375,307601.875,276005.96875,682076.9375,202793.625,202036.53125,222682.65625
87,286733.90625,272048.375,307863.8125,276338.5625,682406.3125,202838.328125,202372.078125,223062.015625
88,286723.8125,272099.78125,307915.9375,276398.28125,682458.25,202777.53125,202402.5625,223149.71875
89,286511.03125,271499.9375,307543.3125,275988.90625,682042.5,202541.328125,202012.21875,222770.546875
90,286544.0,271254.78125,307386.84375,275771.09375,681856.625,202497.6875,201855.75,222601.390625
91,286634.75,271476.53125,307497.78125,275929.4375,681912.0625,202546.0625,201952.40625,222709.75
92,286616.25,271945.0,307793.71875,276293.3125,682252.5,202671.6875,202294.921875,223104.65625
93,286600.78125,271885.375,307855.40625,276384.15625,682351.9375,202675.609375,202371.453125,223224.828125
94,286592.46875,271466.0625,307589.0625,276048.25,682020.75,202495.015625,202053.25,222900.640625
95,286602.84375,271156.53125,307370.125,275796.21875,681793.0,202398.625,201772.875,222583.59375
96,286458.90625,271106.90625,307222.40625,275646.5625,681718.6875,202287.140625,201619.09375,222407.46875
97,286626.625,271771.375,307600.34375,276048.625,682007.5625,202500.203125,201944.265625,222768.5
98,286372.71875,271827.53125,307541.0625,276024.3125,681935.375,202433.328125,201884.453125,222746.046875
99,286325.78125,271152.25,307305.5625,275833.0625,681760.8125,202264.875,201688.390625,222545.328125
100,286349.09375,270880.1875,307131.75,275630.0,681696.5625,202185.75,201522.53125,222336.84375
101,286504.84375,271276.96875,307326.9375,275762.0625,681900.875,202393.796875,201746.140625,222532.28125
102,286739.625,272018.59375,307837.09375,276303.6875,682376.8125,202779.421875,202272.921875,223081.953125
103,286736.59375,272200.4375,307958.78125,276436.90625,682529.0625,202842.265625,202421.078125,223250.84375
104,286727.125,271788.28125,307795.4375,276248.625,682380.3125,202789.609375,202298.578125,223126.203125
105,286672.65625,271350.71875,307518.09375,275961.34375,681989.6875,202606.859375,202001.75,222807.828125
106,286757.96875,271480.90625,307605.96875,276114.15625,681955.3125,202704.21875,202059.421875,222874.265625
107,286587.71875,271883.5,307790.96875,276335.96875,682239.375,202707.625,202332.296875,223202.5625
108,286660.15625,272157.4375,307967.1875,276504.875,682450.625,202781.109375,202499.75,223423.21875
109,286597.125,271545.0,307604.1875,276081.96875,682036.0625,202486.078125,202051.203125,222973.140625
110,286332.21875,270958.40625,307135.875,275520.21875,681686.75,202182.890625,201579.75,222439.921875
111,286424.5625,270971.65625,307094.9375,275436.4375,681607.4375,202164.828125,201456.46875,222273.0
112,286569.0625,271470.34375,307508.4375,275938.1875,681951.0625,202501.359375,201857.984375,222682.9375
113,286617.0625,271697.8125,307704.6875,276175.125,682118.75,202564.484375,202050.75,222894.921875
114,286416.15625,271295.90625,307437.34375,275899.84375,681895.6875,202299.21875,201808.8125,222663.890625
115,286177.625,270789.4375,306953.84375,275281.5,681575.875,201973.328125,201344.875,222150.25
116,286206.59375,270920.5,307022.3125,275370.28125,681677.125,202054.953125,201419.453125,222205.671875
117,286395.96875,271545.46875,307508.6875,275954.46875,682166.4375,202304.21875,201930.59375,222763.671875
118,286466.125,271692.875,307712.09375,276186.3125,682439.75,202462.640625,202191.921875,223051.734375
119,286715.75,271533.5625,307681.875,276096.0,682282.75,202545.078125,202102.15625,222939.078125
120,286740.96875,271395.96875,307569.9375,275917.0,682101.75,202611.328125,202038.140625,222820.34375
121,286802.03125,271565.46875,307642.1875,275989.15625,682085.625,202703.15625,202094.828125,222870.953125
122,286692.34375,272047.5625,307876.875,276330.875,682317.8125,202808.109375,202322.90625,223174.125
123,286586.9375,271833.4375,307823.84375,276358.40625,682318.6875,202573.15625,202276.5,223209.1875
124,286399.0,271205.1875,307408.125,275884.8125,681884.625,202265.953125,201800.046875,222760.0
125,286389.96875,270949.03125,307154.90625,275539.4375,681715.625,202193.71875,201508.9375,222427.9375
126,286533.65625,271227.53125,307310.3125,275713.78125,681882.8125,202332.109375,201691.6875,222566.96875
127,286613.40625,271740.28125,307689.75,276190.6875,682266.625,202497.78125,202151.953125,223025.53125
128,286515.65625,271649.78125,307694.40625,276255.0625,682270.3125,202501.453125,202193.53125,223065.5
129,286519.78125,271291.0,307421.875,275910.9375,681901.75,202279.90625,201857.09375,222694.015625
130,286560.46875,271261.0625,307257.71875,275659.0625,681759.8125,202244.40625,201629.640625,222418.28125
131,286437.4375,271378.96875,307302.15625,275733.90625,681910.6875,202315.578125,201756.421875,222539.703125
132,286502.96875,271716.03125,307677.9375,276218.21875,682375.875,202532.390625,202226.4375,223063.359375
133,286406.15625,271614.03125,307616.6875,276136.3125,682296.9375,202468.546875,202134.34375,222994.6875
134,286317.8125,271232.96875,307333.625,275803.1875,681926.875,202307.890625,201800.59375,222629.015625
135,286247.53125,270833.15625,307075.25,275492.78125,681771.25,202123.171875,201577.15625,222348.28125
136,286410.625,271133.125,307215.90625,275595.5,681917.6875,202198.984375,201717.890625,222459.0625
137,286670.25,271893.34375,307791.59375,276246.90625,682487.1875,202568.765625,202313.0625,223098.046875
138,286618.3125,271847.21875,307824.65625,276325.25,682533.625,202550.4375,202323.34375,223173.59375
139,286564.65625,271508.96875,307579.0625,276020.71875,682201.5,202402.46875,202003.8125,222876.9375
140,286497.34375,271170.84375,307308.53125,275687.15625,681892.1875,202317.984375,201720.75,222561.6875
141,286571.90625,271354.46875,307388.8125,275786.46875,681920.5625,202394.875,201785.484375,222615.078125
142,286559.03125,271846.03125,307720.40625,276214.46875,682283.1875,202552.59375,202181.375,223046.09375
143,286534.90625,271839.0625,307778.8125,276318.0,682370.0625,202526.9375,202263.265625,223162.78125
144,286478.375,271351.71875,307438.25,275913.15625,681926.5625,202240.734375,201846.359375,222734.875
145,286391.84375,270953.9375,307162.6875,275603.5625,681739.5,202118.703125,201570.1875,222412.65625
146,286366.375,271110.125,307166.09375,275578.4375,681794.5,202145.875,201565.09375,222391.203125
147,286506.65625,271724.34375,307580.65625,276082.0625,682179.8125,202402.03125,201974.3125,222847.265625
148,286412.0625,271711.75,307650.40625,276228.9375,682307.125,202393.171875,202079.265625,223005.953125
149,286261.65625,271229.9375,307284.09375,275805.34375,681905.8125,202083.109375,201677.125,222606.671875
150,286323.96875,270925.15625,307064.15625,275487.84375,681698.8125,202049.765625,201405.40625,222284.0
151,286369.59375,271194.4375,307218.84375,275685.4375,681846.8125,202144.890625,201592.265625,222452.53125
152,286407.75,271713.4375,307614.65625,276148.40625,682332.4375,202390.859375,202107.171875,222993.0
153,286408.21875,271699.0625,307688.3125,276245.84375,682456.25,202421.34375,202217.765625,223130.40625
154,286360.09375,271204.71875,307397.375,275896.4375,682085.0625,202219.8125,201880.421875,222792.0
155,286532.5625,271098.875,307269.09375,275691.0,681842.3125,202178.78125,201654.046875,222540.5
156,286588.4375,271455.15625,307421.96875,275866.21875,681964.4375,202334.703125,201799.515625,222688.03125
157,286627.0625,271946.71875,307810.625,276354.84375,682438.25,202542.84375,202280.171875,223218.65625
158,286535.25,271943.0625,307872.0625,276460.96875,682571.0,202550.171875,202381.203125,223370.921875
159,286381.28125,271436.28125,307507.625,276052.1875,682115.375,202288.125,201967.953125,222952.765625
160,286317.71875,271047.09375,307222.40625,275713.59375,681826.75,202125.140625,201682.75,222616.765625
161,286380.75,271174.59375,307256.3125,275721.46875,681854.5625,202140.25,201724.5,222624.375
162,286378.0625,271637.1875,307588.0,276159.65625,682185.375,202323.796875,202102.15625,223033.234375
163,286329.25,271596.59375,307585.78125,276174.40625,682193.25,202242.96875,202101.71875,223065.140625
164,286303.5,271192.75,307324.78125,275838.40625,681861.5625,202052.890625,201782.4375,222739.4375
165,286223.75,270961.09375,307123.96875,275603.625,681737.8125,201979.40625,201592.0,222510.828125
166,286280.53125,271240.84375,307251.46875,275747.84375,681874.625,202085.96875,201751.6875,222660.40625
167,286407.9375,271850.875,307659.25,276221.34375,682299.0,202323.703125,202193.359375,223139.359375
168,286387.625,271843.0,307741.78125,276340.875,682438.75,202330.6875,202304.9375,223285.796875
169,286409.28125,271554.9375,307596.3125,276171.71875,682228.625,202267.203125,202117.09375,223104.03125
170,286379.15625,271297.34375,307408.375,275924.53125,681982.625,202209.453125,201948.828125,222910.46875
171,286419.1875,271479.46875,307494.40625,276013.375,682045.125,202287.671875,202072.5625,223036.71875
172,286478.84375,272005.625,307870.71875,276489.75,682469.9375,202503.5,202468.734375,223500.015625
173,286434.3125,272055.96875,307965.03125,276657.03125,682660.5,202495.1875,202597.390625,223698.765625
174,286350.8125,271546.875,307697.875,276379.96875,682399.3125,202284.015625,202320.9375,223445.484375
175,286314.3125,271216.96875,307437.96875,276044.40625,682067.8125,202155.265625,202052.984375,223156.078125
176,286312.28125,271494.3125,307498.875,276077.0625,682090.875,202230.453125,202138.640625,223237.609375
177,286391.65625,271976.75,307869.28125,276537.0625,682514.0625,202416.78125,202533.546875,223686.53125
178,286409.8125,271999.1875,307956.0,276676.78125,682642.5,202426.171875,202606.953125,223819.65625
179,286313.625,271561.28125,307693.59375,276382.8125,682345.25,202259.421875,202306.71875,223544.09375
180,286268.90625,271211.96875,307425.09375,276030.28125,682000.75,202130.765625,202024.375,223240.109375
181,286352.3125,271447.90625,307514.25,276124.625,682016.6875,202208.734375,202096.53125,223313.078125
182,286335.0625,271943.125,307808.40625,276467.65625,682359.25,202330.765625,202411.0625,223682.328125
183,286215.4375,271825.84375,307816.25,276537.6875,682474.1875,202272.65625,202466.9375,223790.140625
184,286255.59375,271498.25,307632.625,276310.21875,682229.125,202142.296875,202222.5,223550.890625
185,286278.5625,271334.90625,307480.34375,276121.9375,681980.375,202109.671875,202046.71875,223344.71875
186,286182.625,271493.25,307498.40625,276166.0,682032.5625,202109.484375,202147.3125,223440.828125
187,286218.21875,271970.3125,307874.1875,276630.375,682523.125,202307.609375,202585.3125,223936.859375
188,286224.28125,272041.5,308016.71875,276829.59375,682790.6875,202384.859375,202763.953125,224182.546875
189,286194.4375,271723.71875,307871.25,276653.0,682687.6875,202312.71875,202616.25,224067.671875
190,286254.6875,271572.8125,307777.90625,276508.96875,682596.125,202321.46875,202543.03125,223990.859375
191,286341.40625,271846.5,307937.5,276703.875,682795.6875,202431.09375,202744.015625,224218.765625
192,286488.84375,272520.53125,308381.84375,277228.34375,683349.8125,202655.859375,203207.59375,224771.65625
193,286425.46875,272670.09375,308484.3125,277379.25,683593.0,202645.03125,203330.515625,224981.3125
194,286280.8125,272232.28125,308290.75,277219.59375,683525.9375,202508.0625,203185.953125,224880.203125
195,286257.5625,271959.40625,308069.09375,276935.96875,683311.0,202369.3125,202970.296875,224668.65625
196,286309.59375,272206.25,308207.875,277094.5,683505.125,202489.296875,203157.78125,224873.578125
197,286392.03125,272803.84375,308610.375,277592.6875,684063.1875,202669.53125,203616.625,225407.78125
198,286330.6875,272907.9375,308714.53125,277741.28125,684357.0625,202680.078125,203770.5,225641.140625
199,286193.0,272313.90625,308423.6875,277451.59375,684184.4375,202454.59375,203496.1875,225411.0
200,286233.40625,272016.375,308267.5,277277.59375,684080.625,202409.984375,203355.5625,225281.71875
201,286190.0625,272189.09375,308311.125,277332.40625,684238.0,202439.9375,203464.625,225421.5625
202,286277.9375,272770.6875,308695.84375,277776.125,684806.875,202666.234375,203902.453125,225934.9375
203,286165.1875,272737.34375,308722.21875,277855.71875,685049.25,202616.25,203984.890625,226096.21875
204,286284.1875,272392.125,308575.15625,277664.65625,684966.125,202507.890625,203795.609375,225939.578125
205,286224.65625,272084.03125,308375.3125,277440.9375,684826.75,202456.390625,203620.28125,225757.015625
206,286187.0,272159.40625,308342.40625,277366.75,684874.375,202457.734375,203624.046875,225778.640625
207,286319.5,272680.9375,308709.0625,277780.15625,685378.875,202671.6875,203993.65625,226230.15625
208,286405.875,272776.40625,308852.03125,277951.03125,685672.9375,202747.234375,204115.25,226436.859375
209,286280.0,272308.0,308598.65625,277666.625,685536.25,202615.984375,203840.859375,226219.328125
210,286234.9375,271924.0,308325.875,277336.78125,685305.4375,202461.75,203552.515625,225938.859375
211,286257.8125,271973.8125,308266.34375,277234.96875,685217.625,202423.125,203448.625,225842.125
212,286226.4375,272271.0,308436.9375,277439.625,685467.3125,202479.015625,203622.796875,226061.984375
213,286217.0625,272216.28125,308435.65625,277434.34375,685540.5625,202428.046875,203601.6875,226065.546875
214,286118.53125,271733.84375,308163.0625,277143.40625,685264.1875,202281.859375,203286.0,225742.4375
215,286066.65625,271363.25,307882.875,276814.375,684950.0,202160.0,202995.515625,225410.734375
216,286026.15625,271471.6875,307838.0,276745.8125,684895.75,202154.109375,202961.984375,225358.53125
217,286077.5625,272020.65625,308204.1875,277205.46875,685391.6875,202361.34375,203370.125,225814.671875
218,285937.46875,271965.40625,308176.125,277219.03125,685514.6875,202239.3125,203359.40625,225859.734375
219,285897.96875,271509.875,307906.90625,276884.03125,685258.5625,202055.3125,203030.46875,225549.5
220,286075.0625,271448.625,307901.375,276811.96875,685244.4375,202208.46875,203021.078125,225513.828125
221,286222.9375,271745.71875,308067.3125,276966.28125,685422.625,202395.765625,203202.578125,225687.71875
222,286335.15625,272329.5625,308445.59375,277400.71875,685888.25,202634.578125,203583.625,226127.15625
223,286356.53125,272371.75,308527.21875,277502.8125,686072.875,202648.34375,203652.65625,226256.96875
224,286198.53125,271861.6875,308223.34375,277183.0,685816.9375,202445.578125,203330.34375,225953.890625
225,286118.96875,271472.9375,307929.4375,276841.84375,685513.5625,202283.125,203035.828125,225630.5
226,286138.375,271645.40625,307980.3125,276915.59375,685575.3125,202346.953125,203113.796875,225695.59375
227,286226.0,272213.0625,308352.53125,277355.3125,686078.4375,202539.890625,203546.796875,226164.703125
228,286167.25,272195.8125,308372.8125,277408.9375,686221.0,202474.984375,203589.265625,226243.5625
229,286028.9375,271623.6875,308000.875,276981.40625,685841.0625,202209.796875,203171.203125,225812.890625
230,286027.875,271301.71875,307749.84375,276667.5,685522.3125,202105.828125,202884.296875,225483.0625
231,286070.0625,271502.09375,307832.71875,276750.375,685616.875,202224.015625,202997.296875,225574.0
232,286117.1875,272014.21875,308164.0625,277146.28125,686065.3125,202404.984375,203372.0,225981.59375
233,286054.15625,271995.8125,308181.65625,277181.03125,686194.375,202368.40625,203401.328125,226043.734375
234,285978.875,271490.8125,307864.71875,276805.34375,685847.875,202153.484375,203021.265625,225652.671875
235,285962.96875,271137.03125,307593.28125,276454.96875,685505.625,202041.359375,202722.203125,225301.75
236,285957.59375,271227.6875,307583.8125,276437.53125,685468.5,202069.796875,202727.734375,225267.0625
237,286082.0625,271773.34375,307954.03125,276867.40625,685904.5,202304.046875,203117.546875,225672.703125
238,286022.59375,271720.59375,307954.21875,276885.90625,685979.0,202256.125,203110.484375,225693.4375
239,285882.9375,271147.78125,307573.875,276436.1875,685556.75,202004.703125,202665.6875,225234.6875
240,285804.4375,270728.0,307233.9375,276015.625,685118.1875,201842.15625,202284.015625,224797.671875
241,285851.1875,270845.125,307246.375,276011.25,685063.8125,201898.125,202285.0,224761.109375
242,286036.53125,271440.5,307667.75,276479.65625,685499.3125,202182.984375,202705.203125,225193.921875
243,286118.96875,271518.375,307793.46875,276612.40625,685653.1875,202256.75,202822.328125,225318.203125
244,286010.625,270975.125,307447.0,276201.9375,685227.5625,202051.203125,202408.28125,224877.6875
245,285889.09375,270499.125,307058.8125,275735.96875,684705.0625,201854.234375,201972.875,224378.71875
246,285912.4375,270565.71875,307023.84375,275680.15625,684542.0625,201874.625,201906.359375,224264.71875
247,285985.3125,271025.90625,307301.1875,276005.25,684783.125,202033.140625,202167.421875,224526.59375
248,285944.90625,270973.59375,307284.71875,275997.3125,684740.6875,201990.9375,202126.296875,224479.828125
249,285847.0,270381.90625,306887.3125,275518.4375,684165.5,201741.40625,201625.984375,223927.75
250,285765.1875,269846.8125,306444.5,274963.75,683433.5625,201503.21875,201070.9375,223275.515625
251,285769.125,269842.625,306339.96875,274817.75,683074.6875,201474.078125,200902.234375,223009.890625
252,285831.71875,270308.6875,306617.5,275133.09375,683233.125,201661.03125,201157.3125,223228.765625
253,285805.78125,270283.9375,306621.78125,275138.28125,683148.625,201663.96875,201133.796875,223170.46875
254,285757.15625,269777.4375,306285.15625,274718.0625,682591.8125,201488.828125,200698.46875,222658.078125
255,285730.21875,269376.71875,305954.09375,274285.40625,681982.0,201383.953125,200290.328125,222130.484375
256,285775.65625,269475.3125,305940.21875,274241.6875,681735.6875,201433.65625,200245.53125,221979.46875
257,285856.375,269959.09375,306221.6875,274554.8125,681842.5,201595.84375,200496.40625,222177.609375
258,285889.375,269999.78125,306274.625,274606.5625,681786.625,201634.203125,200499.0,222132.984375
259,285844.9375,269540.40625,305970.28125,274231.25,681448.3125,201461.109375,200091.21875,221644.375
260,285836.625,269205.84375,305695.0,273876.28125,681102.75,201350.609375,199739.671875,221176.25
261,285892.40625,269379.3125,305736.84375,273910.4375,681110.8125,201437.953125,199751.921875,221092.5625
262,285973.25,269959.65625,306094.1875,274335.84375,681553.1875,201665.21875,200108.375,221412.8125
263,285951.5,270014.28125,306144.34375,274405.125,681690.5,201647.703125,200131.0,221405.296875
264,285885.0,269612.21875,305881.59375,274099.8125,681416.5625,201478.453125,199800.734375,221005.484375
265,285834.21875,269252.25,305566.59375,273713.9375,681002.5,201304.109375,199413.953125,220509.984375
266,285919.0625,269486.40625,305652.4375,273802.71875,681026.5,201411.3125,199471.359375,220478.875
267,286011.6875,270173.5,306104.375,274347.90625,681587.5,201709.578125,199974.625,220958.0
268,285945.78125,270192.375,306144.4375,274420.15625,681698.8125,201658.15625,200023.171875,220982.140625
269,285832.0625,269707.96875,305824.1875,274048.21875,681372.6875,201406.75,199638.109375,220531.796875
270,285778.5,269383.9375,305560.78125,273724.46875,681060.125,201282.296875,199341.984375,220139.5625
271,285873.0,269669.875,305716.1875,273896.84375,681237.3125,201449.84375,199524.46875,220251.6875
272,285993.09375,270322.1875,306159.375,274423.03125,681686.75,201731.5625,200013.515625,220729.921875
273,285933.71875,270367.4375,306223.03125,274519.84375,681738.0,201731.03125,200100.34375,220810.921875
274,285856.46875,269955.96875,305982.0625,274237.78125,681568.9375,201567.953125,199829.875,220500.5
275,285863.96875,269683.65625,305786.28125,273981.71875,681385.1875,201488.640625,199609.21875,220211.90625
276,285967.25,269937.1875,305927.0,274128.59375,681537.0,201635.1875,199757.015625,220314.546875
277,286115.75,270585.21875,306385.125,274661.90625,681933.8125,201925.3125,200247.953125,220814.140625
278,286139.34375,270698.6875,306533.0,274845.75,682017.8125,202001.578125,200419.703125,220996.09375
279,286110.3125,270315.21875,306328.09375,274597.71875,681791.1875,201877.75,200175.34375,220723.046875
280,286055.03125,269986.09375,306078.8125,274295.875,681586.4375,201746.234375,199911.859375,220396.078125
281,286118.71875,270192.8125,306173.75,274398.0,681691.5,201845.109375,200015.484375,220461.875
282,286205.53125,270784.96875,306574.65625,274876.21875,682030.0625,202085.171875,200452.78125,220915.984375
283,286180.21875,270872.3125,306695.8125,275043.25,682117.0625,202128.53125,200608.609375,221094.4375
284,286077.84375,270429.75,306435.625,274746.125,681858.3125,201938.71875,200330.921875,220801.71875
285,286000.34375,270051.90625,306148.5625,274401.03125,681640.4375,201764.109375,200039.453125,220448.828125
286,286082.75,270224.90625,306220.0625,274463.15625,681698.3125,201837.6875,200112.859375,220473.859375
287,286247.71875,270846.65625,306644.5,274948.1875,682008.375,202106.890625,200548.359375,220911.515625
288,286258.09375,270960.71875,306779.21875,275119.15625,682086.5625,202181.015625,200710.1875,221081.5625
289,286135.78125,270483.375,306489.71875,274791.8125,681784.625,201961.96875,200390.1875,220743.0625
290,286058.0,270131.125,306223.21875,274478.375,681596.1875,201820.171875,200129.390625,220425.140625
291,286123.4375,270351.96875,306334.875,274603.0,681740.5625,201946.140625,200286.65625,220541.0
292,286258.1875,270985.0625,306780.03125,275121.1875,682144.6875,202231.078125,200787.515625,221059.203125
293,286256.46875,271074.375,306902.15625,275275.6875,682250.9375,202282.046875,200948.359375,221241.0625
294,286172.53125,270634.65625,306645.84375,274978.875,681942.8125,202114.234375,200674.953125,220950.578125
295,286107.09375,270282.03125,306377.0,274655.375,681747.5625,201982.078125,200409.859375,220631.125
296,286200.96875,270508.6875,306500.375,274783.96875,681870.9375,202109.671875,200561.859375,220755.140625
297,286312.28125,271108.25,306907.96875,275263.1875,682218.875,202364.296875,201012.203125,221233.828125
298,286265.6875,271161.4375,306991.3125,275386.90625,682298.5625,202368.328125,201135.3125,221388.9375
299,286152.6875,270713.0625,306732.03125,275093.84375,681991.75,202188.609375,200867.890625,221121.609375
300,286111.0,270367.4375,306482.5625,274790.3125,681808.375,202054.59375,200618.0,220829.078125
301,286148.65625,270485.28125,306503.59375,274801.65625,681831.125,202075.421875,200635.796875,220818.890625
302,286235.375,271042.625,306873.46875,275237.4375,682132.25,202298.234375,201030.4375,221242.140625
303,286203.1875,271105.9375,306973.875,275378.15625,682230.0,202333.453125,201170.453125,221412.1875
304,286124.15625,270654.4375,306716.8125,275082.03125,681929.5,202168.953125,200887.921875,221124.75
305,286068.625,270304.9375,306449.9375,274754.71875,681740.6875,202042.25,200611.296875,220804.046875
306,286108.96875,270479.0,306516.28125,274825.0,681830.3125,202126.75,200701.328125,220872.171875
307,286199.625,271018.125,306866.03125,275237.0625,682118.125,202323.0,201076.84375,221276.734375
308,286077.65625,270941.6875,306816.40625,275212.84375,682020.4375,202213.375,201024.171875,221256.078125
309,285960.09375,270495.46875,306549.625,274918.5,681751.8125,202037.34375,200740.40625,220970.78125
310,285908.15625,270159.125,306299.125,274616.40625,681605.75,201917.4375,200491.9375,220681.5625
311,286057.09375,270452.625,306483.46875,274809.0,681831.875,202119.40625,200724.84375,220884.515625
312,286343.21875,271244.59375,307072.46875,275466.3125,682396.375,202567.703125,201371.875,221557.125
313,286277.65625,271259.1875,307118.0,275542.3125,682444.5,202545.609375,201449.390625,221673.53125
314,286157.875,270766.375,306819.09375,275202.46875,682059.25,202329.609375,201124.40625,221352.90625
315,286158.75,270495.0,306628.125,274962.78125,681866.625,202275.875,200937.453125,221134.3125
316,286200.25,270692.6875,306715.46875,275064.5,681978.25,202376.8125,201066.734375,221254.65625
317,286257.71875,271238.34375,307076.0625,275499.9375,682329.75,202590.953125,201472.109375,221708.84375
318,286195.875,271244.96875,307124.0625,275580.40625,682400.9375,202569.671875,201543.984375,221831.15625
319,286085.34375,270690.0,306771.8125,275165.53125,681968.8125,202290.53125,201125.390625,221410.9375
320,286025.71875,270262.375,306444.5625,274767.6875,681664.0625,202086.953125,200751.578125,220983.921875
321,286092.875,270483.125,306553.03125,274893.125,681794.6875,202216.328125,200897.671875,221095.515625
322,286183.875,271087.6875,306963.5,275381.65625,682195.375,202480.96875,201370.09375,221594.578125
323,286154.09375,271132.75,307046.375,275494.90625,682291.75,202501.265625,201481.765625,221740.84375
324,286026.71875,270609.53125,306706.8125,275096.875,681894.375,202258.53125,201085.25,221344.328125
325,285972.34375,270259.4375,306435.625,274760.0,681699.5625,202124.15625,200784.65625,221006.375
326,285981.09375,270428.3125,306490.25,274827.0625,681824.6875,202186.640625,200874.515625,221076.734375
327,286084.8125,271016.96875,306890.90625,275301.34375,682211.1875,202439.40625,201321.375,221556.046875
328,286092.25,271107.375,307010.53125,275452.625,682341.0625,202489.734375,201471.390625,221738.53125
329,286064.625,270718.0,306806.5,275205.6875,682059.125,202374.484375,201243.40625,221508.5625
330,286034.65625,270400.15625,306571.53125,274913.6875,681819.6875,202277.578125,201007.546875,221233.828125
331,286058.34375,270540.6875,306609.1875,274950.6875,681871.8125,202326.484375,201060.484375,221272.09375
332,286226.875,271200.6875,307079.53125,275493.9375,682324.6875,202642.359375,201570.984375,221829.453125
333,286203.46875,271274.03125,307180.5625,275630.625,682455.625,202681.421875,201693.484375,222009.34375
334,286075.0625,270767.78125,306873.65625,275283.90625,682081.6875,202460.40625,201352.921875,221682.015625
335,286010.15625,270417.75,306616.78125,274975.09375,681839.125,202327.203125,201100.53125,221395.46875
336,286038.25,270564.65625,306660.84375,275023.3125,681912.6875,202378.0625,201176.34375,221448.125
337,286135.5,271099.3125,307010.96875,275433.5,682222.6875,202573.25,201548.640625,221851.984375
338,286096.8125,271093.6875,307033.9375,275473.09375,682209.5,202528.265625,201556.5,221893.015625
339,285991.125,270613.75,306746.5,275144.34375,681869.875,202329.96875,201227.046875,221558.09375
340,285943.8125,270270.0625,306498.75,274840.625,681711.0,202208.640625,200965.96875,221255.375
341,285990.5,270436.4375,306559.5625,274901.34375,681806.8125,202285.171875,201036.25,221304.90625
342,286072.125,271013.40625,306935.875,275345.6875,682159.0,202512.71875,201439.5625,221747.90625
343,285998.90625,271017.40625,306962.875,275399.53125,682187.0,202478.5625,201476.671875,221822.65625
344,285918.0,270584.34375,306714.59375,275110.90625,681890.0,202330.234375,201202.359375,221547.734375
345,285875.78125,270259.6875,306477.65625,274818.375,681733.0625,202232.15625,200970.171875,221271.90625
346,285962.34375,270469.8125,306578.78125,274919.5,681852.25,202349.640625,201102.5,221376.0625
347,286060.40625,271052.03125,306964.84375,275373.3125,682220.8125,202586.65625,201533.53125,221837.59375
348,286107.09375,271175.65625,307115.5,275556.4375,682392.4375,202673.640625,201706.625,222051.71875
349,286094.125,270812.3125,306930.3125,275331.75,682141.75,202597.03125,201491.421875,221847.328125
350,285997.1875,270419.09375,306635.8125,274990.03125,681844.3125,202439.484375,201193.25,221526.265625
351,286036.0,270575.84375,306699.03125,275061.125,681920.0,202515.484375,201282.03125,221609.953125
352,286111.90625,271139.1875,307079.53125,275521.375,682315.3125,202721.296875,201711.71875,222086.9375
353,286042.0,271144.09375,307117.8125,275594.59375,682397.0625,202687.328125,201778.421875,222199.953125
354,285946.15625,270602.65625,306772.15625,275187.90625,681964.375,202426.53125,201363.390625,221784.5625
355,285916.90625,270230.375,306473.8125,274817.65625,681686.9375,202277.3125,201010.046875,221385.1875
356,285980.5625,270394.25,306525.9375,274871.3125,681744.3125,202368.0625,201055.828125,221407.453125
357,286031.25,270936.59375,306877.5625,275296.625,682060.375,202561.703125,201448.953125,221824.09375
358,285983.34375,271001.59375,306975.28125,275437.25,682200.6875,202577.359375,201600.859375,222002.71875
359,285897.5,270554.90625,306708.96875,275130.3125,681900.6875,202403.546875,201304.5625,221707.59375
360,285864.96875,270236.0,306475.78125,274844.5625,681768.0,202306.359375,201064.328125,221436.78125
361,285939.25,270423.40625,306566.96875,274937.28125,681876.125,202408.46875,201179.125,221537.0
362,286018.5625,270980.59375,306928.8125,275365.46875,682218.875,202625.09375,201575.46875,221966.609375
363,285941.6875,270985.78125,306959.5625,275429.28125,682270.25,202582.71875,201626.515625,222051.984375
364,285857.53125,270532.84375,306691.0625,275118.34375,681932.8125,202404.796875,201320.46875,221742.546875
365,285859.6875,270247.90625,306494.8125,274868.8125,681765.4375,202344.890625,201112.875,221494.0
366,285978.6875,270470.5,306628.75,275003.53125,681877.125,202482.140625,201262.1875,221625.875
367,286115.84375,271094.5625,307054.5,275493.125,682283.25,202774.953125,201708.953125,222116.71875
368,286049.875,271137.03125,307122.625,275601.75,682404.875,202766.8125,201807.46875,222267.71875
369,285930.5,270644.40625,306828.125,275267.90625,682068.9375,202536.671875,201485.421875,221955.875
370,285880.0625,270266.5,306547.65625,274922.09375,681788.25,202382.625,201172.5,221611.125
371,285919.40625,270343.375,306530.75,274884.8125,681785.375,202386.390625,201123.78125,221535.84375
372,285999.71875,270884.03125,306881.25,275300.09375,682089.375,202600.515625,201493.75,221929.046875
373,285962.875,270936.59375,306959.03125,275412.5,682170.8125,202623.21875,201592.453125,222058.421875
374,285866.9375,270463.71875,306673.375,275085.0,681847.125,202436.625,201264.859375,221727.078125
375,285782.34375,270074.71875,306367.5,274719.9375,681619.4375,202255.765625,200931.375,221354.078125
376,285821.875,270261.21875,306432.3125,274791.28125,681723.3125,202332.296875,201016.671875,221416.03125
377,285884.5625,270806.3125,306781.5625,275217.125,682060.125,202520.046875,201404.6875,221837.3125
378,285904.40625,270896.53125,306906.0,275376.46875,682201.75,202576.015625,201547.75,222019.625
379,285864.625,270481.25,306679.0,275104.65625,681914.125,202440.75,201279.609375,221753.8125
380,285885.1875,270219.28125,306497.78125,274866.3125,681775.625,202396.9375,201085.515625,221521.09375
381,286024.46875,270497.78125,306660.5,275031.15625,681901.4375,202573.59375,201272.46875,221687.390625
382,286091.4375,271041.5625,307012.65625,275445.3125,682235.875,202771.28125,201657.453125,222106.875
383,286018.375,271027.53125,307031.0,275483.9375,682256.25,202725.421875,201676.765625,222166.34375
384,285926.9375,270562.25,306753.125,275161.53125,681913.125,202548.5625,201344.34375,221843.40625
385,285889.46875,270280.96875,306549.90625,274918.25,681792.5,202473.46875,201137.90625,221614.0625
386,285961.34375,270488.84375,306662.71875,275041.8125,681918.4375,202573.25,201288.46875,221749.515625
387,286072.40625,271037.8125,307034.75,275469.71875,682271.1875,202766.625,201686.78125,222179.65625
388,286034.03125,271001.59375,307036.4375,275475.0625,682233.3125,202697.34375,201665.3125,222184.390625
389,285960.46875,270520.40625,306739.1875,275123.78125,681850.5625,202506.28125,201296.953125,221802.546875
390,285924.6875,270217.21875,306512.96875,274848.6875,681711.3125,202414.09375,201059.765625,221518.578125
391,286008.28125,270449.6875,306621.5,274960.625,681833.625,202544.28125,201199.140625,221624.171875
392,286098.125,271014.5625,306995.15625,275403.8125,682183.125,202773.15625,201620.078125,222067.8125
393,286042.8125,271062.84375,307057.0,275498.5,682263.25,202794.171875,201710.90625,222184.84375
394,285965.90625,270628.125,306816.40625,275227.6875,681983.0625,202626.703125,201467.28125,221927.0
395,285884.90625,270259.78125,306525.40625,274883.65625,681742.875,202446.734375,201181.984375,221591.984375
396,285911.375,270401.9375,306563.125,274924.3125,681808.1875,202489.921875,201249.21875,221631.140625
397,285995.59375,270955.09375,306928.71875,275354.09375,682155.5,202695.90625,201652.4375,222063.78125
398,286080.875,271126.40625,307127.8125,275582.8125,682382.0,202824.828125,201875.875,222322.703125
399,286088.5625,270761.09375,306945.6875,275356.34375,682125.5,202742.671875,201660.3125,222107.59375
400,286011.875,270399.25,306663.1875,275018.90625,681828.4375,202591.578125,201373.21875,221782.328125
401,286050.84375,270554.8125,306711.625,275065.84375,681882.3125,202658.8125,201448.140625,221827.484375
402,286137.03125,271127.65625,307090.71875,275519.0625,682264.3125,202870.875,201876.578125,222284.0
403,286086.15625,271155.375,307150.28125,275611.6875,682358.8125,202843.078125,201954.453125,222404.875
404,286012.9375,270715.21875,306907.78125,275326.5625,682051.4375,202683.296875,201665.765625,222131.5625
405,285974.125,270386.03125,306674.875,275039.9375,681835.0,202577.796875,201418.109375,221864.40625
406,286030.46875,270509.9375,306713.6875,275069.15625,681894.625,202620.265625,201445.734375,221885.59375
407,286129.875,271028.25,307048.25,275452.0,682168.375,202798.546875,201765.453125,222245.109375
408,286077.84375,270972.8125,307015.625,275415.96875,682057.8125,202685.984375,201668.09375,222181.796875
409,285996.65625,270481.0625,306719.25,275071.21875,681741.3125,202475.609375,201289.0,221793.59375
410,285965.90625,270184.3125,306510.65625,274822.21875,681654.5625,202394.25,201076.65625,221535.84375
411,286021.34375,270359.21875,306585.75,274905.625,681747.9375,202491.34375,201175.453125,221609.0625
412,286090.90625,270912.0,306935.59375,275326.75,682073.625,202691.53125,201559.453125,222024.984375
413,286061.75,270970.3125,307010.0,275438.9375,682170.0,202696.453125,201653.96875,222157.21875
414,286033.15625,270568.59375,306790.21875,275182.09375,681894.625,202548.921875,201398.796875,221900.796875
415,286063.375,270308.59375,306604.53125,274942.46875,681753.0625,202500.828125,201208.359375,221664.765625
416,286108.25,270464.53125,306650.84375,274990.65625,681820.875,202556.875,201289.1875,221710.359375
417,286221.34375,271045.125,307037.53125,275443.59375,682182.8125,202780.21875,201722.171875,222165.265625
418,286345.625,271265.34375,307271.78125,275708.4375,682436.625,202943.484375,201986.90625,222462.0
419,286282.0625,270833.0625,307019.375,275416.0625,682107.875,202781.828125,201701.53125,222180.28125
420,286202.9375,270475.0,306744.53125,275094.03125,681830.25,202640.296875,201422.671875,221870.40625
421,286236.8125,270637.625,306805.0625,275168.75,681899.375,202710.75,201521.734375,221955.15625
422,286331.59375,271187.28125,307162.6875,275594.4375,682237.0625,202902.171875,201911.984375,222380.28125
423,286326.65625,271264.4375,307263.71875,275725.9375,682354.6875,202929.53125,202032.875,222535.9375
424,286214.375,270747.9375,306944.8125,275355.09375,681969.75,202704.40625,201668.171875,222162.046875
425,286145.625,270334.625,306622.5,274961.25,681685.0625,202503.953125,201305.546875,221747.109375
426,286188.4375,270460.3125,306644.75,274970.5625,681722.5,202537.125,201321.09375,221726.1875
427,286301.375,271076.875,307056.9375,275445.46875,682102.4375,202814.828125,201760.984375,222190.828125
428,286231.34375,271131.78125,307123.71875,275544.53125,682184.5,202826.796875,201841.09375,222313.234375
429,286109.5,270661.65625,306841.71875,275227.15625,681857.1875,202619.828125,201528.171875,222007.640625
430,286046.8125,270309.40625,306577.96875,274906.875,681663.0625,202467.296875,201261.734375,221697.125
431,286123.875,270505.125,306667.5625,274995.40625,681792.6875,202574.140625,201385.375,221783.046875
432,286294.46875,271159.65625,307120.5,275510.84375,682223.5625,202888.21875,201885.890625,222298.84375
433,286297.59375,271258.625,307236.90625,275656.3125,682358.8125,202927.46875,202031.703125,222469.875
434,286297.4375,270908.4375,307068.625,275452.90625,682126.1875,202843.609375,201841.453125,222275.59375
435,286295.375,270629.84375,306870.15625,275199.25,681887.5,202784.953125,201633.484375,222029.71875
436,286334.4375,270812.0625,306941.5,275277.3125,681949.4375,202888.9375,201728.609375,222111.796875
437,286419.75,271398.65625,307340.4375,275758.40625,682376.4375,203113.078125,202180.5625,222608.28125
438,286387.90625,271432.8125,307416.15625,275865.59375,682492.9375,203064.53125,202278.640625,222748.828125
439,286303.875,270933.46875,307112.09375,275510.65625,682094.875,202846.109375,201915.03125,222383.421875
440,286230.28125,270507.1875,306771.71875,275096.15625,681723.6875,202654.515625,201518.234375,221939.59375
441,286296.90625,270641.90625,306793.0,275099.28125,681733.3125,202709.40625,201509.390625,221891.671875
442,286414.0,271268.65625,307225.375,275609.375,682140.75,202984.96875,201984.140625,222386.546875
443,286404.09375,271380.21875,307361.1875,275784.5,682298.9375,203045.765625,202149.71875,222587.0
444,286316.21875,270936.15625,307103.96875,275487.40625,681990.125,202865.875,201858.796875,222298.5625
445,286251.46875,270587.1875,306834.125,275155.25,681772.9375,202720.5,201571.890625,221975.1875
446,286325.40625,270776.90625,306917.1875,275237.78125,681851.0625,202820.09375,201675.421875,222060.03125
447,286431.28125,271362.53125,307301.09375,275684.28125,682209.625,203058.8125,202084.640625,222505.90625
448,286405.6875,271423.875,307383.96875,275794.25,682306.375,203062.75,202181.1875,222636.171875
449,286317.0,270951.625,307107.4375,275473.90625,681970.0,202868.734375,201869.15625,222316.984375
450,286288.40625,270631.34375,306870.59375,275178.25,681772.875,202774.40625,201618.015625,222024.09375
451,286347.40625,270791.75,306935.0625,275238.59375,681838.75,202853.359375,201695.625,222079.25
452,286425.0,271334.8125,307288.125,275654.34375,682165.1875,203053.359375,202072.828125,222487.75
453,286427.4375,271427.53125,307396.75,275786.375,682276.5,203086.4375,202177.4375,222634.921875
454,286343.84375,270966.46875,307125.40625,275467.28125,681945.5625,202903.953125,201845.296875,222313.953125
455,286315.5,270631.28125,306886.59375,275171.34375,681779.625,202777.453125,201582.96875,222017.46875
456,286399.4375,270820.53125,306978.0625,275262.28125,681863.0625,202872.125,201681.40625,222097.765625
457,286484.46875,271387.75,307348.65625,275694.84375,682202.375,203104.59375,202079.984375,222527.09375
458,286459.4375,271454.0,307438.78125,275814.8125,682309.3125,203124.890625,202190.578125,222668.984375
459,286357.40625,270973.15625,307146.34375,275482.3125,681953.125,202911.109375,201856.015625,222332.453125
460,286316.125,270637.625,306897.25,275180.03125,681766.125,202801.671875,201595.046875,222027.484375
461,286372.8125,270803.375,306959.03125,275244.03125,681853.6875,202880.453125,201679.265625,222080.59375
462,286469.4375,271367.71875,307329.4375,275681.15625,682192.4375,203101.453125,202078.90625,222505.453125
463,286433.0625,271382.03125,307365.65625,275742.84375,682205.5625,203058.1875,202108.859375,222563.578125
464,286326.40625,270882.59375,307056.75,275388.25,681840.875,202838.0625,201739.078125,222189.671875
465,286288.65625,270570.21875,306829.125,275108.21875,681710.875,202744.453125,201498.578125,221907.234375
466,286387.375,270788.09375,306948.375,275233.59375,681841.6875,202868.5625,201646.984375,222026.140625
467,286525.3125,271394.71875,307361.28125,275712.53125,682217.375,203121.125,202090.09375,222491.78125
468,286523.09375,271483.84375,307464.34375,275847.0,682327.0,203145.71875,202204.171875,222640.28125
469,286442.09375,271047.28125,307206.15625,275547.5,681998.1875,202987.90625,201902.609375,222340.6875
470,286377.96875,270681.78125,306931.125,275216.0625,681763.375,202837.703125,201614.0,222009.0625
471,286457.46875,270861.5,307018.46875,275304.84375,681855.9375,202935.4375,201722.71875,222091.59375
472,286605.15625,271483.3125,307447.1875,275803.03125,682250.1875,203209.46875,202178.78125,222580.734375
473,286592.5625,271593.65625,307573.59375,275972.96875,682407.1875,203245.5,202334.53125,222771.265625
474,286496.4375,271173.4375,307330.15625,275698.3125,682122.625,203083.484375,202076.671875,222514.671875
475,286474.90625,270843.625,307091.625,275400.59375,681865.3125,202973.875,201814.71875,222221.953125
476,286538.90625,270995.4375,307150.8125,275454.15625,681886.3125,203049.609375,201869.4375,222262.0
477,286616.875,271455.59375,307438.25,275787.28125,682085.5,203162.25,202132.015625,222554.546875
478,286560.71875,271431.46875,307449.15625,275814.28125,682036.0625,203083.578125,202101.625,222556.859375
479,286485.71875,270978.96875,307183.25,275506.625,681748.1875,202908.96875,201770.375,222220.96875
480,286454.6875,270650.03125,306937.125,275202.1875,681584.0,202800.875,201493.03125,221891.859375
481,286522.28125,270856.21875,307039.59375,275314.5,681722.25,202927.203125,201631.25,221990.109375
482,286622.34375,271448.375,307431.90625,275778.875,682088.5625,203174.328125,202071.578125,222447.171875
483,286548.84375,271488.875,307479.5625,275864.625,682146.3125,203143.03125,202144.890625,222550.515625
484,286457.375,271043.0,307211.6875,275556.625,681830.6875,202966.453125,201841.625,222243.234375
485,286438.59375,270729.96875,306981.03125,275267.90625,681682.625,202861.140625,201597.640625,221955.96875
486,286538.75,270935.875,307091.34375,275379.3125,681820.875,202983.53125,201733.71875,222063.15625
487,286802.9375,271670.8125,307631.28125,275977.53125,682322.625,203384.703125,202300.828125,222657.625
488,286762.875,271734.5625,307711.46875,276089.03125,682417.1875,203374.421875,202401.140625,222796.65625
489,286681.625,271289.75,307451.9375,275788.4375,682076.375,203188.09375,202106.8125,222502.6875
490,286667.46875,270994.34375,307242.96875,275522.71875,681829.625,203121.484375,201890.796875,222247.25
491,286701.90625,271135.0625,307283.125,275564.65625,681844.3125,203186.21875,201955.796875,222289.546875
492,286788.1875,271672.59375,307631.8125,275982.90625,682158.8125,203372.984375,202326.125,222692.5
493,286797.40625,271822.25,307799.0,276194.4375,682379.6875,203464.28125,202536.671875,222944.265625
494,286708.53125,271354.5625,307529.96875,275887.25,682071.375,203268.921875,202236.265625,222647.609375
495,286646.28125,270923.1875,307204.53125,275488.9375,681772.3125,203060.59375,201863.890625,222230.4375
496,286676.6875,270945.34375,307139.34375,275384.59375,681726.8125,203010.984375,201743.8125,222071.125
497,286736.40625,271403.9375,307407.21875,275692.59375,681905.0,203137.046875,201967.0625,222310.109375
498,286694.125,271505.65625,307523.4375,275854.4375,682013.625,203196.40625,202111.640625,222480.6875
499,286597.3125,271037.09375,307246.03125,275537.21875,681748.1875,203015.8125,201799.15625,222158.828125
500,286590.40625,270719.34375,307018.21875,275244.125,681625.6875,202938.5625,201555.4375,221861.640625
501,286732.5625,270946.875,307145.875,275365.375,681759.875,203101.28125,201699.109375,221962.578125
502,286897.71875,271581.5625,307574.15625,275859.96875,682136.125,203390.0625,202161.875,222438.046875
503,286841.75,271604.1875,307607.03125,275913.625,682146.0625,203364.765625,202204.0,222502.6875
504,286781.84375,271154.65625,307347.3125,275603.375,681843.0625,203209.828125,201895.890625,222177.421875
505,286876.0625,270938.5625,307222.875,275419.90625,681794.75,203207.5,201753.109375,221978.21875
506,286923.90625,271079.5625,307268.0,275464.34375,681838.5625,203272.765625,201808.015625,222004.59375
507,286980.40625,271598.46875,307597.03125,275860.15625,682105.0625,203460.515625,202156.34375,222385.203125
508,286954.125,271654.25,307665.34375,275952.6875,682136.75,203456.40625,202218.203125,222481.578125
509,286868.375,271199.1875,307387.5625,275631.09375,681825.6875,203278.671875,201886.78125,222142.28125
510,286821.1875,270836.0,307111.5625,275294.1875,681617.625,203126.40625,201585.125,221788.140625
511,286892.96875,271022.78125,307196.21875,275381.375,681735.9375,203221.53125,201706.4375,221860.828125
512,287000.625,271586.6875,307559.84375,275806.59375,682031.6875,203441.296875,202098.046875,222254.671875
513,287001.96875,271705.0625,307686.4375,275969.03125,682130.5,203505.40625,202241.640625,222419.453125
514,286890.71875,271223.15625,307383.4375,275614.71875,681810.75,203297.625,201891.25,222055.03125
515,286826.90625,270810.09375,307059.6875,275211.78125,681521.8125,203083.578125,201510.109375,221620.859375
516,286893.0625,270963.0625,307100.90625,275239.3125,681566.4375,203145.265625,201532.453125,221606.109375
517,287039.15625,271627.625,307549.1875,275759.65625,681974.9375,203461.765625,202010.609375,222101.25
518,287007.84375,271719.09375,307654.0,275904.03125,682060.0,203507.546875,202144.8125,222254.046875
519,286865.875,271221.71875,307341.875,275560.1875,681767.75,203279.109375,201800.953125,221895.4375
520,286748.40625,270797.5625,307022.0625,275197.71875,681544.75,203049.875,201477.921875,221518.84375
521,286874.28125,271029.5,307150.4375,275313.15625,681697.0625,203181.921875,201645.203125,221643.84375
522,287086.53125,271725.53125,307641.90625,275863.09375,682126.625,203531.421875,202161.609375,222186.546875
523,287123.0,271870.4375,307801.15625,276052.375,682259.875,203608.125,202325.765625,222391.546875
524,287083.0625,271473.46875,307587.1875,275796.9375,681960.5,203490.375,202070.78125,222135.9375
525,287092.4375,271221.71875,307413.21875,275568.21875,681814.0,203450.421875,201885.53125,221914.203125
526,287196.5,271471.15625,307561.71875,275730.59375,681926.375,203600.171875,202080.25,222088.640625
527,287199.46875,271893.4375,307815.09375,276043.4375,682133.3125,203674.296875,202362.0625,222398.609375
528,287162.34375,271911.9375,307872.40625,276125.25,682154.8125,203640.046875,202413.921875,222485.515625
529,287052.84375,271416.53125,307567.0,275770.03125,681836.0625,203428.328125,202056.03125,222120.828125
530,287026.625,271114.4375,307340.78125,275484.375,681705.375,203331.140625,201814.796875,221832.484375
531,287065.53125,271186.84375,307329.25,275456.46875,681712.25,203330.078125,201794.953125,221770.984375
532,287144.46875,271632.4375,307585.15625,275751.0625,681826.0625,203429.765625,202011.59375,221993.25
533,287146.53125,271781.03125,307733.375,275942.03125,681917.25,203509.328125,202174.046875,222171.515625
534,287057.375,271388.28125,307518.53125,275700.90625,681746.375,203375.765625,201951.234375,221933.4375
535,287049.6875,271111.65625,307325.40625,275452.4375,681657.4375,203308.703125,201755.703125,221688.09375
536,287134.90625,271314.25,307428.9375,275552.78125,681778.75,203430.296875,201884.453125,221786.0
537,287237.625,271896.75,307813.40625,276002.46875,682112.5,203656.234375,202299.21875,222228.75
538,287212.15625,271978.1875,307909.40625,276133.8125,682197.4375,203656.046875,202409.0,222378.328125
539,287157.625,271562.625,307676.0625,275858.8125,681898.5,203504.6875,202133.890625,222106.53125
540,287178.1875,271288.78125,307481.78125,275604.4375,681760.4375,203429.3125,201921.46875,221851.265625
541,287257.40625,271456.125,307563.25,275691.25,681837.25,203519.96875,202030.625,221925.828125
542,287358.15625,272011.90625,307941.59375,276136.9375,682157.9375,203747.78125,202442.984375,222360.34375
543,287340.8125,272087.625,308042.1875,276275.0,682238.375,203756.359375,202552.046875,222506.890625
544,287275.09375,271658.03125,307799.0,275995.0625,681919.0625,203590.515625,202253.609375,222219.359375
545,287211.96875,271289.40625,307524.25,275655.0625,681704.5625,203450.59375,201952.3125,221891.671875
546,287260.0625,271434.15625,307573.25,275704.65625,681775.25,203524.53125,202013.828125,221932.359375
547,287378.34375,272035.84375,307978.34375,276184.59375,682142.9375,203768.25,202456.203125,222405.671875
548,287367.8125,272136.0,308096.09375,276346.25,682254.9375,203790.15625,202597.03125,222581.09375
549,287302.0,271688.78125,307843.53125,276058.0,681931.0,203613.578125,202307.53125,222288.375
550,287269.46875,271359.21875,307589.4375,275738.65625,681714.3125,203513.09375,202022.859375,221958.640625
551,287328.65625,271513.625,307641.5625,275791.65625,681784.375,203580.328125,202090.0,221998.078125
552,287408.9375,272085.21875,308006.53125,276229.65625,682106.25,203770.3125,202485.890625,222430.625
553,287351.0,272110.875,308055.875,276312.71875,682126.375,203724.984375,202525.5,222519.578125
554,287259.28125,271638.34375,307781.75,276003.09375,681824.625,203533.03125,202208.90625,222202.546875
555,287274.8125,271385.96875,307611.25,275781.65625,681749.1875,203476.796875,202037.25,221986.890625
556,287366.65625,271559.03125,307700.75,275872.3125,681827.9375,203581.3125,202151.78125,222067.625
557,287468.75,272147.53125,308080.625,276322.65625,682147.9375,203818.234375,202559.46875,222500.09375
558,287496.03125,272336.34375,308261.78125,276551.8125,682335.125,203910.140625,202763.59375,222746.671875
559,287497.8125,272021.1875,308141.96875,276410.28125,682175.8125,203841.03125,202648.34375,222636.4375
560,287470.71875,271668.3125,307898.96875,276100.28125,681910.0625,203702.8125,202393.625,222343.984375
561,287446.125,271684.65625,307833.4375,276013.46875,681842.4375,203657.390625,202311.015625,222243.578125
562,287551.71875,272246.59375,308208.125,276456.125,682142.3125,203878.3125,202686.4375,222657.8125
563,287517.5625,272352.09375,308323.375,276613.59375,682269.9375,203904.0625,202825.8125,222841.09375
564,287411.8125,271844.0,307992.3125,276220.71875,681893.75,203655.6875,202430.28125,222436.609375
565,287371.5625,271469.625,307706.90625,275868.09375,681656.0625,203500.21875,202110.828125,222054.21875
566,287437.28125,271618.84375,307773.78125,275937.3125,681728.6875,203587.125,202206.9375,222099.640625
567,287576.03125,272281.625,308218.3125,276459.0,682131.5625,203885.375,202700.203125,222609.890625
568,287541.875,272403.3125,308325.625,276602.9375,682232.75,203908.359375,202826.796875,222778.59375
569,287465.875,271938.3125,308074.375,276316.75,681918.9375,203750.375,202538.109375,222501.609375
570,287379.4375,271554.3125,307782.03125,275967.0,681687.0,203596.328125,202224.921875,222155.78125
571,287432.28125,271693.96875,307839.78125,276029.21875,681792.0,203664.546875,202308.6875,222219.625
572,287602.0625,272337.34375,308290.28125,276554.3125,682202.4375,203958.875,202790.40625,222740.328125
573,287590.4375,272438.28125,308407.25,276707.71875,682327.0625,203973.0,202938.203125,222922.984375
574,287457.5625,271931.6875,308086.8125,276343.03125,681934.125,203728.828125,202586.46875,222565.53125
575,287479.65625,271670.71875,307913.4375,276113.875,681784.9375,203696.546875,202405.421875,222349.703125
576,287606.0,271883.3125,308040.9375,276241.28125,681877.8125,203854.265625,202551.609375,222482.484375
577,287712.65625,272462.0625,308419.21875,276688.0625,682205.3125,204087.796875,202942.21875,222920.390625
578,287690.65625,272564.6875,308526.34375,276843.71875,682324.875,204092.890625,203061.234375,223092.421875
579,287589.1875,272125.25,308273.125,276567.09375,682017.625,203924.8125,202779.140625,222820.796875
580,287527.84375,271758.0625,307997.21875,276227.875,681789.6875,203784.265625,202491.078125,222501.796875
581,287577.125,271873.65625,308011.0,276219.65625,681825.9375,203807.59375,202506.09375,222495.71875
582,287674.65625,272384.625,308341.25,276608.40625,682067.875,203984.09375,202831.890625,222848.515625
583,287646.59375,272446.84375,308430.40625,276732.125,682124.875,203969.328125,202920.40625,222971.625
584,287558.0625,272002.9375,308171.28125,276434.3125,681835.875,203795.890625,202614.453125,222669.515625
585,287533.65625,271674.1875,307925.78125,276129.53125,681666.875,203691.453125,202331.484375,222349.796875
586,287549.65625,271799.375,307946.15625,276142.5,681727.4375,203754.3125,202370.109375,222361.609375
587,287593.75,272336.25,308276.71875,276545.375,682019.0,203934.90625,202727.828125,222752.671875
588,287571.21875,272457.6875,308406.53125,276722.75,682160.5,203977.828125,202891.0,222953.03125
589,287503.09375,272021.8125,308169.40625,276451.65625,681875.25,203792.75,202646.828125,222696.15625
590,287585.4375,271797.9375,308036.125,276256.03125,681778.8125,203785.6875,202507.890625,222506.625
591,287661.59375,271960.75,308103.15625,276318.34375,681842.9375,203869.203125,202586.296875,222563.125
592,287729.90625,272507.125,308454.53125,276744.03125,682156.875,204071.609375,202958.5,222979.765625
593,287799.5625,272712.21875,308669.125,276993.65625,682387.875,204191.421875,203192.921875,223265.5
594,287756.71875,272328.84375,308473.59375,276763.15625,682138.0625,204072.78125,202980.578125,223058.171875
595,287674.9375,271949.03125,308189.25,276418.75,681859.3125,203917.75,202694.84375,222737.203125
596,287725.15625,272133.75,308271.96875,276512.46875,681958.125,204014.484375,202838.0625,222857.09375
597,287821.90625,272723.03125,308641.75,276941.96875,682303.5,204217.96875,203241.203125,223298.3125
598,287794.28125,272744.21875,308699.59375,277027.53125,682338.25,204195.625,203292.34375,223390.9375
599,287678.84375,272211.53125,308375.5,276658.8125,681939.625,203951.71875,202910.046875,223011.953125
600,287625.5625,271812.4375,308062.65625,276269.90625,681655.4375,203764.859375,202537.578125,222600.046875
601,287670.0,271957.625,308089.84375,276282.875,681699.875,203826.28125,202555.90625,222587.09375
602,287768.875,272533.125,308478.59375,276750.46875,682042.4375,204048.8125,202974.59375,223033.140625
603,287765.40625,272660.09375,308634.25,276960.75,682214.6875,204115.328125,203168.96875,223264.609375
604,287651.59375,272227.0,308369.25,276662.9375,681908.1875,203945.734375,202892.875,222986.5625
605,287532.6875,271852.9375,308059.4375,276306.46875,681680.5,203751.0,202592.828125,222640.015625
606,287574.78125,271994.53125,308118.71875,276375.65625,681785.75,203809.390625,202697.78125,222719.5
607,287711.03125,272609.3125,308545.8125,276860.625,682204.5,204077.875,203173.171875,223235.109375
608,287755.375,272792.15625,308726.59375,277073.40625,682405.6875,204161.640625,203363.875,223479.71875
609,287846.21875,272573.90625,308655.53125,276955.90625,682266.5625,204157.53125,203249.25,223385.765625
610,287916.0625,272323.46875,308535.09375,276791.40625,682048.875,204178.1875,203120.5,223240.65625
611,287893.78125,272367.46875,308516.6875,276775.21875,681951.375,204193.75,203120.6875,223242.171875
612,287902.375,272848.75,308808.9375,277131.34375,682238.3125,204331.96875,203427.34375,223602.921875
613,287871.4375,272974.4375,308926.6875,277285.84375,682384.6875,204332.59375,203550.109375,223792.734375
614,287804.03125,272599.5625,308728.9375,277062.65625,682153.25,204217.078125,203336.59375,223602.75
615,287732.9375,272220.3125,308474.5625,276771.5625,681881.1875,204086.015625,203114.0625,223344.359375
616,287767.375,272301.3125,308483.5,276771.46875,681846.625,204114.078125,203152.15625,223355.984375
617,287846.0625,272773.625,308739.65625,277050.5,681991.125,204233.171875,203366.90625,223597.65625
618,287819.9375,272841.78125,308817.875,277155.9375,682032.9375,204216.453125,203431.8125,223698.765625
619,287745.1875,272466.09375,308621.8125,276939.5625,681798.75,204085.46875,203223.5,223496.53125
620,287738.5,272216.625,308464.625,276745.8125,681738.8125,204057.484375,203095.828125,223334.34375
621,287759.0625,272364.5,308513.625,276797.65625,681818.25,204115.515625,203191.5,223408.734375
622,287839.96875,272962.09375,308904.15625,277272.875,682226.9375,204334.296875,203634.140625,223894.578125
623,287791.34375,273104.34375,309019.9375,277438.0,682418.3125,204334.296875,203792.3125,224107.453125
624,287684.65625,272670.71875,308772.28125,277156.5625,682152.9375,204157.359375,203536.328125,223870.515625
625,287776.5625,272471.1875,308679.3125,277017.4375,681989.6875,204196.78125,203452.46875,223763.859375
626,287921.40625,272725.8125,308842.84375,277184.625,682120.0,204356.5625,203657.125,223965.203125
627,288029.78125,273372.21875,309284.9375,277711.84375,682641.4375,204605.28125,204150.46875,224526.859375
628,287990.96875,273488.1875,309414.40625,277898.625,682879.6875,204608.953125,204306.9375,224771.390625
629,287948.875,273131.34375,309242.9375,277714.96875,682713.75,204487.984375,204102.375,224627.078125
630,287884.59375,272835.15625,309018.5,277458.375,682455.9375,204390.53125,203870.984375,224411.796875
631,287902.71875,272985.25,309052.75,277497.8125,682489.0625,204408.765625,203941.625,224498.515625
632,287998.3125,273521.15625,309447.59375,277985.625,682971.375,204596.171875,204382.65625,225012.25
633,287981.15625,273694.96875,309614.21875,278206.8125,683248.0625,204640.421875,204574.984375,225286.375
634,287915.875,273345.3125,309428.0,278014.84375,683090.1875,204505.421875,204370.6875,225132.5
635,287880.5625,273089.6875,309232.90625,277798.125,682877.5625,204399.5625,204172.375,224948.765625
636,287964.59375,273310.34375,309360.6875,277958.625,683005.0625,204522.140625,204319.984375,225130.265625
637,288031.125,274022.46875,309853.40625,278584.1875,683673.1875,204781.859375,204900.78125,225809.84375
638,287942.875,274261.1875,310059.375,278877.90625,684145.5625,204796.4375,205217.90625,226230.0625
639,287844.78125,273987.96875,309925.09375,278755.15625,684173.3125,204618.078125,205115.265625,226208.609375
640,287854.1875,273833.8125,309875.75,278730.1875,684261.75,204613.78125,205133.765625,226279.59375
641,287990.8125,274198.25,310153.09375,279060.90625,684753.5625,204849.546875,205542.265625,226754.34375
642,288116.59375,274955.34375,310692.21875,279714.3125,685603.875,205133.6875,206191.453125,227537.46875
643,288101.125,275250.46875,310961.78125,280068.8125,686222.25,205259.46875,206539.421875,228043.6875
644,288094.6875,275024.625,310935.9375,280065.5,686490.9375,205178.5625,206569.734375,228200.953125
645,288150.21875,274884.53125,310905.71875,280032.15625,686704.75,205179.71875,206605.40625,228322.90625
646,288214.84375,275142.3125,311085.15625,280263.71875,687175.5625,205315.171875,206890.265625,228710.03125
647,288290.40625,275837.09375,311605.875,280925.3125,688135.5,205601.640625,207551.421875,229541.609375
648,288224.96875,276045.21875,311822.59375,281243.625,688827.25,205644.828125,207894.84375,230059.8125
649,288115.6875,275546.15625,311555.0,280961.8125,688842.375,205369.09375,207629.65625,229920.6875
650,288047.46875,275171.1875,311300.625,280663.90625,688796.3125,205213.15625,207395.671875,229759.765625
651,288135.8125,275440.75,311493.3125,280903.25,689308.9375,205383.65625,207702.96875,230150.921875
652,288207.25,276044.6875,311919.6875,281440.46875,690131.6875,205594.578125,208223.9375,230816.46875
653,288162.625,276109.6875,312020.875,281584.4375,690611.0625,205543.875,208365.5625,231114.28125
654,288107.21875,275798.53125,311901.71875,281471.78125,690839.25,205444.640625,208275.625,231151.65625
655,288081.625,275560.8125,311779.5,281334.53125,691049.5625,205412.359375,208213.578125,231184.015625
656,288138.9375,275721.9375,311884.90625,281482.3125,691490.4375,205493.359375,208387.203125,231461.71875
657,288116.9375,276249.5,312208.28125,281883.9375,692266.5625,205605.125,208804.1875,232033.109375
658,288009.9375,276308.4375,312304.21875,282020.8125,692848.4375,205541.015625,208975.953125,232371.25
659,287950.28125,275939.53125,312161.15625,281872.5,693082.9375,205434.796875,208850.15625,232374.828125
660,288111.6875,275791.40625,312177.96875,281854.0,693454.875,205548.171875,208921.5,232535.3125
661,288296.9375,276041.65625,312371.28125,282036.46875,694007.3125,205752.5625,209178.0,232888.296875
662,288402.96875,276642.71875,312784.59375,282525.0,694852.1875,205985.46875,209642.921875,233510.296875
663,288368.625,276744.65625,312926.03125,282729.5625,695474.8125,205977.421875,209830.5,233871.40625
664,288233.625,276327.3125,312681.15625,282463.75,695620.3125,205785.28125,209579.71875,233759.46875
665,288145.65625,275916.03125,312449.96875,282218.9375,695777.625,205658.234375,209400.453125,233681.0625
666,288215.65625,276034.125,312521.9375,282289.21875,696235.6875,205737.359375,209531.703125,233909.5
667,288330.46875,276593.65625,312914.78125,282758.96875,697087.5625,205962.03125,209979.453125,234501.1875
668,288309.09375,276591.5,312947.78125,282815.375,697502.25,205858.234375,209983.734375,234655.234375
669,288174.71875,276072.125,312615.4375,282437.1875,697438.5,205598.953125,209588.5625,234354.390625
670,288094.6875,275752.3125,312351.4375,282114.15625,697450.5625,205478.609375,209331.078125,234140.171875
671,288142.78125,275906.71875,312426.71875,282202.59375,697892.5,205573.109375,209481.71875,234350.71875
672,288203.21875,276458.0,312824.03125,282696.65625,698776.75,205807.265625,209959.328125,234955.375
673,288221.28125,276634.9375,313023.9375,282952.90625,699491.875,205893.46875,210212.796875,235354.84375
674,288134.84375,276230.1875,312815.625,282712.9375,699695.8125,205740.9375,210013.0625,235258.296875
675,288037.28125,275798.1875,312516.5625,282364.5,699728.4375,205564.71875,209728.125,235027.265625
676,288069.65625,275865.25,312500.125,282320.96875,700036.75,205573.921875,209726.34375,235081.359375
677,288215.375,276483.21875,312912.1875,282796.25,700915.25,205837.9375,210166.125,235633.796875
678,288252.3125,276618.3125,313092.0625,283032.1875,701629.625,205938.609375,210383.65625,235981.953125
679,288249.8125,276239.3125,312907.28125,282794.8125,701815.5,205829.171875,210165.234375,235859.375
680,288186.78125,275846.46875,312624.375,282452.03125,701837.0,205679.328125,209873.40625,235616.359375
681,288192.59375,275868.625,312593.0,282416.71875,702155.4375,205680.40625,209859.5625,235660.171875
682,288257.6875,276355.5625,312890.375,282762.90625,702906.8125,205863.6875,210157.109375,236066.4375
683,288206.625,276315.75,312949.5625,282858.46875,703472.3125,205865.484375,210245.703125,236261.4375
684,288111.0625,275792.03125,312633.59375,282491.8125,703466.375,205614.6875,209884.40625,235960.21875
685,288105.875,275397.1875,312343.125,282127.5625,703381.8125,205473.421875,209539.484375,235634.875
686,288167.46875,275391.03125,312314.6875,282109.15625,703600.5625,205507.40625,209488.78125,235606.53125
687,288191.4375,275812.21875,312544.90625,282362.34375,704209.6875,205655.546875,209715.15625,235901.9375
688,288197.9375,275953.5625,312632.53125,282436.46875,704664.1875,205695.875,209767.828125,236033.09375
689,288100.6875,275475.6875,312348.125,282123.1875,704653.875,205492.03125,209438.1875,235750.46875
690,288011.28125,274982.25,312004.96875,281723.46875,704515.75,205323.3125,209075.015625,235382.296875
691,288054.1875,274985.125,311934.4375,281609.375,704637.375,205341.015625,208988.90625,235287.796875
692,288135.71875,275456.5625,312207.125,281924.25,705184.8125,205493.90625,209241.3125,235586.59375
693,288133.5,275520.125,312249.78125,281955.125,705495.5625,205476.640625,209235.21875,235636.921875
694,288006.09375,274993.0,311917.625,281574.59375,705364.25,205237.296875,208837.359375,235252.21875
695,287927.5,274570.8125,311591.1875,281169.125,705173.3125,205099.703125,208470.34375,234851.84375
696,288007.4375,274634.375,311589.15625,281143.75,705318.625,205181.421875,208460.875,234816.171875
697,288178.0,275177.71875,311958.21875,281582.1875,705895.0625,205401.71875,208809.921875,235202.765625
698,288166.5625,275324.34375,312047.625,281704.3125,706235.0625,205423.890625,208871.703125,235311.21875
699,288144.9375,274909.9375,311772.59375,281332.5625,706137.125,205254.109375,208525.0625,234966.46875
700,288067.34375,274432.75,311432.59375,280927.09375,705896.5625,205101.578125,208130.609375,234526.578125
701,288091.75,274405.40625,311371.78125,280810.0,705975.9375,205179.015625,208104.140625,234447.734375
702,288238.625,274949.09375,311717.25,281193.90625,706459.9375,205442.40625,208428.421875,234783.71875
703,288197.40625,275012.84375,311779.21875,281283.40625,706785.4375,205446.6875,208504.765625,234891.453125
704,288064.1875,274426.0625,311339.25,280753.21875,706463.3125,205104.71875,207939.453125,234312.640625
705,288037.1875,273866.625,310943.4375,280274.625,706069.3125,204922.859375,207433.40625,233736.046875
706,287981.3125,273689.0625,310651.09375,279871.40625,705698.3125,204773.375,207023.46875,233241.625
707,288009.03125,274010.84375,310754.0,279953.90625,705751.1875,204780.515625,207009.796875,233189.953125
708,288013.15625,274070.21875,310812.90625,280009.78125,705864.625,204833.90625,207003.1875,233146.234375
709,287914.875,273471.71875,310441.96875,279574.65625,705499.4375,204649.09375,206548.90625,232621.671875
710,287913.5625,272935.71875,310041.6875,279057.53125,704978.625,204483.0625,206043.84375,232000.203125
711,287926.34375,272875.375,309872.53125,278805.40625,704647.6875,204482.796875,205780.359375,231619.34375
712,287945.125,273152.625,310024.53125,278956.5,704775.3125,204621.46875,205890.6875,231657.609375
713,287920.96875,273084.15625,309974.71875,278862.78125,704726.0625,204620.03125,205802.71875,231485.046875
714,287973.90625,272553.25,309594.28125,278341.28125,704072.1875,204411.546875,205240.796875,230796.171875
715,287731.15625,271768.96875,308961.90625,277588.5625,703075.3125,204035.140625,204498.890625,229870.359375
716,287576.65625,271384.34375,308525.0,276999.46875,702284.625,203849.53125,203990.4375,229154.46875
717,287839.78125,271728.125,308752.34375,277191.40625,702234.8125,204126.515625,204092.265625,229115.5
718,288067.40625,271827.90625,308795.90625,277163.0625,701933.875,204224.046875,203933.84375,228835.46875
719,287764.5,271110.59375,308196.96875,276456.3125,700936.8125,203899.5,203188.28125,227928.703125
720,287682.625,270254.15625,307543.75,275620.4375,699751.0,203513.453125,202350.703125,226875.578125
721,287675.8125,269953.90625,307126.40625,275026.875,698674.375,203292.609375,201692.40625,225980.265625
722,287627.4375,270286.34375,307223.3125,275120.75,698328.0,203428.6875,201677.203125,225766.578125
723,287640.9375,270248.34375,307217.21875,275107.15625,697945.5625,203465.796875,201583.59375,225489.59375
724,287649.625,269726.5625,306748.375,274477.46875,696819.25,203168.6875,200851.796875,224530.703125
725,287588.71875,269266.21875,306240.5625,273790.8125,695585.9375,202964.9375,200124.921875,223514.6875
726,287538.21875,269256.71875,306130.21875,273657.15625,694966.375,203059.96875,199999.21875,223108.953125
727,287722.21875,269757.6875,306495.4375,274109.75,694938.5625,203334.09375,200345.21875,223265.6875
728,287589.8125,269744.25,306421.25,274001.46875,694483.5,203260.96875,200225.5,222964.734375
729,287534.46875,269281.21875,306072.03125,273553.53125,693589.4375,203089.125,199735.109375,222253.78125
730,287483.9375,268842.25,305706.4375,273079.40625,692642.625,202988.8125,199278.421875,221528.421875
731,287522.3125,268883.375,305597.0,272893.71875,691959.875,202987.203125,199106.671875,221095.328125
732,287621.46875,269363.65625,305846.90625,273155.3125,691714.375,203170.296875,199302.375,221092.921875
733,287654.09375,269483.1875,305891.9375,273166.3125,691283.625,203152.25,199270.546875,220882.0
734,287523.375,268980.46875,305458.15625,272632.1875,690229.5,202860.421875,198678.671875,220074.75
735,287477.875,268601.46875,305121.0,272173.625,689262.5,202785.234375,198256.9375,219394.265625
736,287452.125,268572.84375,304981.25,272013.6875,688530.25,202706.015625,198083.765625,218980.234375
737,287555.90625,269007.71875,305259.40625,272355.9375,688319.25,202853.53125,198348.046875,219068.390625
738,287571.21875,269150.25,305352.03125,272463.65625,687924.5,202888.40625,198393.375,218952.25
739,287381.9375,268673.0625,305000.125,272067.3125,687027.5,202689.734375,197976.921875,218341.15625
740,287399.0,268375.0,304746.28125,271744.84375,686153.0625,202594.875,197649.6875,217798.1875
741,287442.65625,268586.1875,304750.3125,271708.96875,685568.1875,202656.390625,197610.984375,217568.046875
742,287588.71875,269267.71875,305175.28125,272205.0,685505.75,202930.421875,197999.625,217842.25
743,287655.875,269533.875,305384.125,272457.75,685282.6875,202992.828125,198177.1875,217923.265625
744,287710.59375,269286.5,305210.84375,272244.53125,684560.5625,202831.09375,197896.546875,217508.765625
745,287606.53125,269070.21875,305002.625,272022.625,683827.1875,202763.6875,197674.359375,217104.734375
746,287510.875,269142.65625,305011.5625,272053.65625,683403.75,202815.53125,197759.390625,217023.015625
747,287626.8125,269841.1875,305485.0625,272652.9375,683519.4375,203046.03125,198270.71875,217449.765625
748,287739.65625,270171.4375,305784.3125,273089.0625,683455.0625,203144.28125,198540.453125,217668.1875
749,287593.75,269916.1875,305581.09375,272858.125,682857.875,202975.9375,198311.21875,217359.90625
750,287470.8125,269595.84375,305305.34375,272523.65625,682128.8125,202809.453125,198018.9375,216943.71875
751,287520.25,269722.0,305343.875,272542.96875,681767.25,202849.328125,198061.765625,216872.1875
752,287719.53125,270482.40625,305886.15625,273213.78125,681998.5,203155.1875,198627.453125,217384.3125
753,287673.9375,270763.875,306146.5,273589.3125,682071.5,203238.703125,198976.484375,217709.484375
754,287607.0625,270643.0625,306031.875,273479.96875,681736.8125,203102.984375,198824.3125,217508.40625
755,287450.34375,270401.5,305882.84375,273355.3125,681601.4375,203035.484375,198782.921875,217382.078125
756,287489.125,270452.625,305956.15625,273477.28125,681642.5,203055.140625,198947.96875,217473.625
757,287495.5625,270972.8125,306304.03125,273955.78125,681834.125,203149.5625,199338.234375,217873.015625
758,287481.34375,271328.71875,306614.375,274366.15625,682006.125,203341.515625,199718.921875,218283.484375
759,287512.5625,271129.71875,306572.78125,274287.46875,681865.375,203307.984375,199720.984375,218286.96875
760,287750.65625,271074.375,306612.84375,274283.28125,681790.625,203385.953125,199742.890625,218280.53125
761,287794.1875,271300.40625,306752.5,274460.75,681862.0,203509.25,199956.125,218474.09375
762,287909.15625,271861.5,307186.125,275015.34375,682165.5,203723.640625,200451.34375,219008.84375
763,287935.46875,272204.65625,307446.75,275351.96875,682311.0,203819.671875,200741.734375,219350.546875
764,287675.375,271885.375,307219.28125,275152.9375,681975.6875,203608.046875,200549.515625,219172.1875
765,287453.625,271358.78125,306939.4375,274889.90625,681796.4375,203407.765625,200405.84375,219004.28125
766,287699.25,271637.09375,307127.375,275061.375,681909.3125,203547.6875,200615.140625,219204.28125
767,287851.3125,272267.59375,307578.4375,275629.3125,682190.0,203797.765625,201069.5,219715.515625
768,287679.84375,272309.78125,307630.375,275780.65625,682168.1875,203668.5625,201159.546875,219863.65625
769,287567.46875,272079.125,307543.3125,275699.21875,682047.3125,203614.828125,201151.21875,219882.796875
770,287585.59375,271790.6875,307386.03125,275494.375,681802.625,203520.78125,201025.78125,219751.09375
771,287716.5,272059.625,307516.46875,275638.6875,681818.4375,203605.171875,201163.828125,219891.734375
772,287779.25,272645.78125,307946.96875,276177.28125,682237.125,203824.859375,201676.578125,220474.125
773,287693.6875,272859.75,308172.71875,276494.75,682544.6875,203902.71875,202002.828125,220884.515625
774,287477.5,272360.59375,307889.75,276193.1875,682252.875,203671.609375,201762.328125,220696.390625
775,287610.09375,272146.1875,307779.96875,276058.625,681961.125,203617.875,201601.75,220543.875
776,287492.96875,272172.1875,307773.96875,276078.375,681943.375,203633.515625,201715.296875,220665.46875
777,287523.46875,272682.96875,308124.90625,276490.90625,682357.9375,203800.0,202164.296875,221190.734375
778,287734.125,273142.96875,308565.5,276994.09375,682871.75,204119.53125,202664.703125,221781.796875
779,287806.8125,272769.625,308452.03125,276840.6875,682733.8125,204067.6875,202552.953125,221722.875
780,287689.59375,272306.65625,308164.78125,276545.0,682369.8125,203870.1875,202277.125,221463.859375
781,287628.78125,272383.90625,308135.8125,276493.0625,682300.0625,203868.75,202307.703125,221520.015625
782,287755.125,272988.65625,308517.46875,276920.96875,682680.875,204038.265625,202720.765625,222011.484375
783,287788.65625,273257.6875,308749.03125,277217.15625,682964.125,204094.5,202990.859375,222372.421875
784,287689.5,273058.84375,308604.1875,277063.21875,682773.25,204001.34375,202828.5,222258.875
785,287650.59375,272743.0625,308506.75,277002.84375,682741.5625,203988.90625,202860.953125,222298.21875
786,287725.0,272851.59375,308632.53125,277199.5625,682890.625,204065.0,203078.84375,222543.90625
787,287699.875,273285.9375,308868.03125,277466.6875,683135.0625,204129.546875,203330.875,222879.453125
788,287684.65625,273536.625,308997.6875,277593.5625,683297.4375,204140.8125,203445.859375,223093.21875
789,287580.96875,273293.53125,308924.0,277543.3125,683355.0625,204081.265625,203440.9375,223174.125
790,287422.34375,272813.15625,308725.96875,277402.15625,683281.625,203942.328125,203350.734375,223130.59375
791,287487.96875,272988.3125,308821.8125,277503.8125,683426.4375,204042.828125,203509.15625,223327.203125
792,287664.5625,273789.9375,309342.34375,278103.625,684090.625,204362.90625,204091.90625,224013.9375
793,287681.625,274081.03125,309603.5,278447.75,684592.3125,204400.984375,204445.25,224495.65625
794,287568.875,273672.1875,309423.53125,278254.03125,684569.6875,204227.71875,204302.375,224450.6875
795,287561.09375,273432.3125,309250.15625,278035.40625,684426.125,204132.953125,204114.359375,224320.421875
796,287762.1875,273788.40625,309429.34375,278212.625,684637.1875,204302.640625,204293.4375,224567.1875
797,287859.09375,274376.15625,309956.40625,278880.3125,685435.6875,204694.609375,204955.046875,225360.046875
798,287819.6875,274585.21875,310188.59375,279187.78125,685944.3125,204756.65625,205261.796875,225817.984375
799,287580.875,274068.875,309939.40625,278963.28125,685982.5,204538.671875,205118.484375,225779.8125
800,287565.125,273711.59375,309690.21875,278646.15625,685827.875,204348.421875,204866.984375,225592.0625
801,287661.6875,273708.5625,309717.21875,278697.03125,685907.6875,204406.359375,204894.0625,225680.921875
802,287739.75,274246.53125,310105.25,279172.3125,686514.5625,204612.4375,205359.078125,226254.46875
803,287638.0,274388.0625,310214.96875,279306.78125,686903.0,204586.59375,205544.140625,226559.796875
804,287492.25,273911.96875,309968.90625,279027.21875,686860.125,204384.453125,205330.5625,226426.84375
805,287497.8125,273512.15625,309682.625,278679.40625,686588.3125,204175.953125,204978.5625,226119.28125
806,287483.21875,273596.90625,309648.65625,278627.03125,686594.375,204224.140625,204938.140625,226123.578125
807,287507.5625,274155.59375,310057.875,279139.3125,687285.4375,204509.625,205469.046875,226757.828125
808,287504.34375,274394.3125,310254.84375,279413.8125,687779.1875,204521.25,205735.390625,227148.984375
809,287536.625,274162.125,310144.15625,279302.59375,687812.9375,204399.296875,205586.796875,227092.296875
810,287433.34375,273868.78125,309928.9375,279032.5625,687740.3125,204324.8125,205407.890625,226959.4375
811,287567.53125,274090.25,310101.6875,279198.6875,688110.625,204522.578125,205677.90625,227275.953125
812,287872.4375,274822.65625,310710.8125,279938.96875,689003.4375,204895.5,206366.25,228086.421875
813,287743.59375,274903.5,310836.96875,280156.59375,689479.75,204872.796875,206572.0625,228433.59375
814,287595.15625,274487.9375,310569.71875,279840.28125,689417.9375,204653.75,206278.09375,228252.359375
815,287505.59375,274188.40625,310338.96875,279569.71875,689360.125,204554.0625,206056.71875,228102.421875
816,287578.0,274255.46875,310443.65625,279733.96875,689715.5,204682.359375,206251.984375,228372.703125
817,287637.28125,274769.46875,310784.40625,280164.1875,690352.0,204836.671875,206650.015625,228894.21875
818,287608.59375,274959.1875,310901.34375,280283.65625,690762.1875,204815.390625,206787.4375,229158.234375
819,287501.28125,274432.59375,310645.0,279997.1875,690737.0,204659.109375,206542.828125,228991.484375
820,287440.59375,273876.75,310276.90625,279543.4375,690475.0,204430.3125,206145.59375,228618.21875
821,287411.25,273812.625,310153.34375,279386.96875,690428.0,204381.5,206007.1875,228501.453125
822,287535.625,274240.4375,310438.84375,279716.71875,690888.9375,204520.96875,206289.71875,228862.921875
823,287542.875,274389.03125,310547.375,279858.25,691170.6875,204518.65625,206351.671875,229024.75
824,287425.46875,273929.03125,310301.6875,279588.96875,691089.6875,204397.859375,206080.765625,228816.421875
825,287382.125,273517.3125,309985.4375,279178.75,690834.8125,204274.296875,205721.078125,228466.40625
826,287378.09375,273542.8125,309912.59375,279075.9375,690860.0625,204290.578125,205674.5,228420.265625
827,287494.6875,274012.1875,310260.28125,279491.15625,691419.5,204556.203125,206083.359375,228870.96875
828,287420.125,273988.40625,310314.75,279562.9375,691733.125,204534.125,206200.9375,229050.9375
829,287403.21875,273474.5,310003.5,279174.375,691447.875,204321.234375,205788.234375,228659.609375
830,287256.125,272947.09375,309584.0,278679.25,691033.375,204105.59375,205321.34375,228173.6875
831,287284.65625,272861.625,309437.46875,278435.15625,690879.75,204084.125,205141.375,227975.5625
832,287324.90625,273233.0,309667.34375,278706.875,691191.1875,204226.015625,205353.4375,228230.71875
833,287331.0625,273328.3125,309745.5625,278794.03125,691364.375,204241.21875,205381.609375,228315.03125
834,287201.6875,272859.46875,309411.28125,278395.46875,691027.8125,204035.140625,204958.796875,227902.328125
835,287173.53125,272330.71875,309050.875,277948.0625,690594.1875,203870.359375,204532.6875,227423.921875
836,287269.0,272408.3125,309001.09375,277845.6875,690446.875,203908.625,204433.71875,227261.90625
837,287312.46875,272864.65625,309284.21875,278201.71875,690785.1875,204111.578125,204737.15625,227555.4375
838,287331.25,272955.75,309360.3125,278278.875,690923.0,204112.203125,204791.96875,227621.140625
839,287330.15625,272543.59375,309069.9375,277901.9375,690508.8125,203927.484375,204357.890625,227161.765625
840,287133.125,271979.875,308640.84375,277419.21875,689951.375,203723.28125,203861.6875,226600.296875
841,287121.40625,271879.125,308497.53125,277225.40625,689714.3125,203704.875,203708.359375,226375.625
842,287273.40625,272482.09375,308819.5,277568.1875,689982.75,203917.390625,203986.671875,226639.90625
843,287328.75,272669.46875,309004.125,277780.59375,690207.0,204028.4375,204170.765625,226819.796875
844,287171.5625,272124.375,308672.6875,277404.65625,689842.875,203816.453125,203809.75,226418.359375
845,287177.09375,271780.78125,308376.125,277000.1875,689380.9375,203694.9375,203437.0,225958.53125
846,287307.90625,271944.21875,308378.4375,276973.4375,689208.8125,203777.828125,203379.15625,225822.90625
847,287272.78125,272306.03125,308632.8125,277306.40625,689494.875,203941.890625,203684.578125,226119.28125
848,287244.6875,272420.75,308712.375,277406.8125,689564.375,203930.4375,203727.75,226166.5
849,287178.90625,272011.71875,308466.78125,277127.84375,689222.5,203798.828125,203406.609375,225818.875
850,287137.84375,271691.09375,308225.90625,276833.4375,688878.0,203714.53125,203145.71875,225490.578125
851,287220.90625,271751.90625,308177.5625,276740.34375,688665.625,203706.921875,203058.09375,225335.640625
852,287289.84375,272220.03125,308462.65625,277102.46875,688891.375,203867.234375,203338.65625,225596.703125
853,287181.65625,272359.6875,308544.125,277218.96875,688982.8125,203860.078125,203429.5,225693.703125
854,287122.75,272102.8125,308344.28125,276962.34375,688723.0,203724.453125,203190.515625,225434.34375
855,287139.375,271738.5,308126.9375,276693.0625,688390.0625,203676.078125,202948.578125,225128.84375
856,287134.375,271677.6875,308011.34375,276555.71875,688104.375,203629.140625,202799.4375,224914.796875
857,287185.96875,272226.65625,308336.34375,276948.0625,688409.4375,203811.625,203145.984375,225260.359375
858,287127.03125,272366.65625,308503.09375,277191.78125,688647.375,203862.9375,203359.578125,225496.296875
859,287046.3125,271995.53125,308282.53125,276929.71875,688372.3125,203700.046875,203099.3125,225220.484375
860,286999.53125,271630.84375,308019.40625,276585.25,688002.75,203580.6875,202825.015625,224885.03125
861,287164.125,271863.65625,308140.1875,276694.5,688023.625,203734.015625,202959.75,224962.8125
862,287411.4375,272561.3125,308626.28125,277265.1875,688487.3125,204068.3125,203445.765625,225460.453125
863,287482.59375,272794.65625,308844.53125,277531.875,688735.0,204151.09375,203658.203125,225712.3125
864,287380.3125,272361.28125,308597.9375,277257.84375,688409.4375,203980.328125,203339.8125,225396.078125
865,287139.28125,271889.59375,308183.90625,276760.46875,687922.0,203720.15625,202929.984375,224934.828125
866,287095.21875,271821.625,308123.09375,276675.71875,687837.6875,203758.0625,202932.578125,224884.3125
867,287213.9375,272319.53125,308474.375,277104.875,688205.125,203970.40625,203310.140625,225277.34375
868,287231.28125,272399.65625,308540.53125,277181.59375,688262.375,203933.65625,203351.703125,225334.46875
869,287135.1875,271881.71875,308167.28125,276732.84375,687706.625,203636.734375,202854.78125,224798.65625
870,287089.84375,271364.84375,307766.90625,276219.65625,687038.9375,203397.125,202342.3125,224190.59375
871,287073.65625,271261.5,307639.5,276050.75,686684.8125,203404.28125,202177.625,223921.671875
872,287179.15625,271820.90625,308012.875,276485.46875,687019.4375,203722.390625,202594.796875,224301.90625
873,287181.125,271903.875,308111.75,276597.75,687091.375,203778.453125,202691.34375,224393.109375
874,287043.71875,271322.65625,307732.125,276158.78125,686554.6875,203526.765625,202232.6875,223897.796875
875,287014.375,270765.28125,307326.125,275635.46875,685899.625,203332.21875,201752.75,223310.390625
876,286987.75,270582.625,307096.71875,275303.6875,685405.0,203256.671875,201490.96875,222914.671875
877,287030.03125,270922.46875,307240.5625,275437.6875,685355.9375,203370.390625,201624.09375,222953.03125
878,286993.5625,270753.75,307128.71875,275283.03125,685032.5625,203261.40625,201453.25,222693.65625
879,286780.3125,269840.09375,306481.5,274496.0625,683991.0625,202844.6875,200640.71875,221749.25
880,286813.03125,269147.03125,305947.03125,273768.28125,682913.6875,202629.75,199906.234375,220833.90625
881,286956.0,268884.0,305715.03125,273397.78125,682146.0625,202672.9375,199525.1875,220255.4375
882,286960.03125,268936.28125,305631.40625,273228.8125,681707.6875,202663.359375,199273.40625,219850.34375
883,286909.96875,268700.875,305384.46875,272859.125,681176.9375,202513.078125,198840.0625,219259.0
884,286765.21875,267897.5625,304772.125,272078.6875,680140.125,202166.265625,198006.421875,218207.03125
885,286740.1875,267235.78125,304211.625,271337.3125,679033.875,201930.3125,197230.734375,217148.8125
886,286800.15625,267055.78125,303943.59375,270948.40625,678209.0625,201875.875,196798.265625,216432.484375
887,286924.34375,267502.28125,304084.40625,271054.34375,677823.0,201974.21875,196760.625,216175.4375
888,286914.4375,267703.5625,304124.03125,271082.25,677424.125,201983.875,196663.796875,215892.375
889,286778.96875,267391.0625,303875.125,270793.0,676751.6875,201876.671875,196305.375,215337.96875
890,286786.75,267191.78125,303681.71875,270559.75,676110.625,201840.546875,196021.328125,214843.453125
891,286882.0625,267497.03125,303765.21875,270648.15625,675786.5,201962.328125,196065.578125,214685.46875
892,286945.09375,268234.90625,304173.625,271158.78125,675916.625,202176.984375,196474.25,214959.0625
893,286940.90625,268668.4375,304455.625,271529.28125,676026.5625,202293.484375,196785.578125,215162.46875
894,286936.34375,268579.75,304432.125,271518.53125,675783.75,202270.6875,196754.28125,215006.265625
895,286844.6875,268347.28125,304244.71875,271328.1875,675339.5625,202163.484375,196575.828125,214677.875
896,286912.0,268629.0,304399.84375,271526.15625,675292.625,202301.890625,196787.890625,214767.90625
897,287079.21875,269460.21875,304948.71875,272179.71875,675743.8125,202625.71875,197390.046875,215325.453125
898,287157.0,269936.03125,305354.34375,272701.21875,676149.5,202841.90625,197865.609375,215788.578125
899,287206.15625,269824.8125,305389.75,272792.40625,676114.375,202843.4375,197917.46875,215804.140625
900,287137.75,269574.84375,305227.65625,272654.28125,675835.9375,202724.15625,197785.765625,215595.453125
901,287083.21875,269725.3125,305263.5,272712.21875,675819.4375,202764.84375,197920.953125,215663.234375
902,287165.3125,270340.25,305656.46875,273189.375,676189.1875,202948.578125,198356.546875,216102.390625
903,287237.1875,270750.1875,306014.4375,273649.65625,676612.75,203115.765625,198773.09375,216544.34375
904,287146.53125,270500.75,305935.75,273614.15625,676578.1875,203016.703125,198740.90625,216507.5
905,287091.09375,270207.84375,305777.5,273456.34375,676415.9375,202917.546875,198635.40625,216356.3125
906,287130.53125,270276.21875,305790.9375,273472.4375,676377.5625,202923.0,198683.765625,216357.65625
907,287184.625,270767.09375,306076.40625,273804.0625,676616.375,203014.5625,198952.34375,216636.0625
908,287176.03125,271008.9375,306279.34375,274061.1875,676868.3125,203062.03125,199171.125,216883.375
909,287106.28125,270716.75,306158.21875,273956.125,676777.5,202956.796875,199059.640625,216772.328125
910,287028.25,270445.03125,305983.3125,273763.375,676608.0625,202886.4375,198928.390625,216602.984375
911,286999.90625,270498.40625,305987.0,273785.8125,676649.5625,202889.296875,199018.25,216653.765625
912,287132.40625,271140.25,306454.6875,274344.25,677240.875,203152.78125,199574.171875,217234.375
913,287266.5,271537.40625,306819.8125,274774.375,677774.75,203353.671875,200009.5,217713.328125
914,287210.8125,271227.0625,306681.40625,274629.5625,677717.6875,203234.859375,199885.21875,217603.8125
915,287269.375,271015.28125,306572.875,274475.9375,677631.1875,203218.3125,199796.265625,217493.84375
916,287405.28125,271229.40625,306730.59375,274638.3125,677841.625,203389.34375,200012.984375,217696.96875
917,287439.15625,271723.8125,307078.84375,275080.25,678339.8125,203541.515625,200428.1875,218168.328125
918,287438.625,271940.90625,307266.6875,275314.59375,678678.75,203552.703125,200630.703125,218451.5625
919,287342.0625,271561.46875,307093.65625,275142.9375,678611.3125,203393.546875,200446.515625,218318.265625
920,287225.21875,271081.875,306748.375,274736.375,678248.3125,203152.875,200061.0,217919.765625
921,287270.96875,271206.34375,306845.65625,274859.25,678454.25,203281.4375,200252.953125,218099.65625
922,287412.96875,271822.34375,307279.46875,275363.84375,679061.6875,203529.359375,200753.28125,218650.59375
923,287341.25,271925.25,307364.9375,275484.0,679312.1875,203473.03125,200855.015625,218808.75
924,287205.53125,271440.84375,307064.0625,275144.09375,679040.9375,203214.921875,200494.796875,218464.53125
925,287156.90625,271102.90625,306847.4375,274890.34375,678872.25,203116.65625,200290.953125,218236.28125
926,287225.90625,271239.25,306928.8125,274977.34375,679044.75,203238.875,200438.921875,218367.4375
927,287294.9375,271807.40625,307297.53125,275425.71875,679597.375,203447.203125,200875.765625,218846.203125
928,287328.90625,272089.21875,307547.0625,275732.5625,680077.25,203555.015625,201177.0625,219210.625
929,287360.125,271840.0625,307478.84375,275651.84375,680160.875,203519.265625,201112.0625,219180.765625
930,287309.15625,271468.5625,307246.03125,275368.78125,680028.4375,203397.75,200898.109375,218957.078125
931,287334.8125,271510.75,307231.1875,275336.3125,680101.5,203427.265625,200922.609375,218972.8125
932,287393.1875,272021.46875,307550.4375,275722.46875,680597.0625,203580.59375,201284.53125,219396.328125
933,287544.5625,272362.0,307892.25,276128.1875,681162.75,203794.625,201658.96875,219856.59375
934,287546.0,272048.71875,307766.71875,275975.9375,681172.8125,203716.3125,201512.25,219759.59375
935,287400.4375,271551.71875,307394.71875,275545.53125,680860.4375,203474.5625,201120.015625,219365.03125
936,287388.46875,271546.09375,307348.75,275492.25,680908.8125,203453.453125,201117.4375,219354.3125
937,287481.8125,272059.53125,307673.84375,275872.03125,681379.4375,203627.984375,201466.203125,219750.828125
938,287480.0,272243.53125,307825.5625,276062.21875,681684.4375,203646.390625,201625.53125,219972.828125
939,287440.40625,271938.5625,307700.9375,275923.90625,681703.3125,203582.296875,201509.75,219881.984375
940,287371.75,271517.84375,307410.09375,275569.5,681489.1875,203422.25,201223.734375,219564.59375
941,287394.53125,271467.21875,307312.71875,275434.46875,681397.5,203379.6875,201120.375,219424.140625
942,287538.5625,272078.6875,307715.21875,275897.96875,681797.4375,203646.84375,201559.015625,219885.03125
943,287596.6875,272416.46875,307999.71875,276239.84375,682057.0625,203827.890625,201904.921875,220281.015625
944,287586.84375,272145.09375,307903.59375,276128.46875,681922.25,203805.890625,201831.171875,220229.515625
945,287517.9375,271774.0625,307661.59375,275845.75,681764.5625,203686.359375,201629.015625,220009.84375
946,287517.3125,271759.3125,307599.1875,275777.0,681766.75,203646.125,201605.859375,219975.59375
947,287604.03125,272276.28125,307922.75,276158.40625,682023.125,203817.78125,201961.078125,220379.359375
948,287711.9375,272586.0625,308197.59375,276473.46875,682249.5625,203972.109375,202247.09375,220734.9375
949,287783.28125,272387.125,308183.46875,276452.375,682174.9375,203995.078125,202248.078125,220767.390625
950,287711.40625,271986.59375,307910.6875,276130.25,681878.25,203845.5,201981.734375,220497.203125
951,287714.34375,271963.78125,307840.9375,276040.3125,681844.4375,203820.921875,201919.046875,220438.71875
952,287821.46875,272541.53125,308216.90625,276484.3125,682166.25,204046.3125,202317.984375,220903.015625
953,287812.78125,272759.96875,308412.5,276744.84375,682366.9375,204110.5,202536.3125,221207.453125
954,287682.78125,272328.84375,308165.75,276476.875,682056.875,203907.640625,202251.109375,220973.828125
955,287601.25,271921.0625,307876.59375,276131.21875,681802.4375,203751.71875,201938.0,220660.28125
956,287681.0,272021.5625,307932.125,276178.0,681874.5,203866.34375,202033.5,220747.53125
957,287776.03125,272543.875,308273.84375,276581.03125,682159.875,204036.03125,202418.390625,221171.6875
958,287785.6875,272700.6875,308402.9375,276740.90625,682234.4375,204033.171875,202536.40625,221340.84375
959,287676.71875,272260.625,308137.9375,276439.875,681897.75,203842.015625,202225.984375,221052.421875
960,287642.1875,271921.21875,307908.96875,276160.09375,681741.5,203751.890625,201987.890625,220796.4375
961,287713.8125,272021.375,307956.90625,276201.25,681820.875,203842.203125,202077.921875,220869.75
962,287831.84375,272606.4375,308346.09375,276660.34375,682167.5,204088.609375,202515.75,221347.90625
963,287836.84375,272843.03125,308544.125,276915.34375,682391.5625,204161.828125,202754.734375,221644.5625
964,287757.53125,272463.21875,308341.0625,276679.125,682135.75,204013.59375,202547.21875,221455.8125
965,287733.46875,272090.46875,308097.34375,276371.5625,681868.4375,203905.234375,202298.140625,221181.515625
966,287797.9375,272129.90625,308084.65625,276332.84375,681879.1875,203945.46875,202300.1875,221165.609375
967,287911.21875,272689.5,308454.34375,276765.40625,682199.0625,204166.75,202699.75,221610.671875
968,287905.3125,272906.3125,308648.625,277011.71875,682409.625,204228.796875,202921.75,221900.625
969,287859.09375,272522.40625,308452.5625,276784.78125,682138.0625,204085.296875,202684.5625,221705.53125
970,287867.59375,272186.9375,308234.875,276504.40625,681871.8125,204019.9375,202432.78125,221445.53125
971,287901.5625,272213.875,308207.6875,276463.90625,681894.8125,204041.125,202426.265625,221423.359375
972,287994.0,272782.21875,308578.46875,276907.90625,682242.125,204249.984375,202845.578125,221883.625
973,288013.40625,273082.28125,308840.78125,277234.78125,682567.5625,204371.046875,203170.296875,222271.21875
974,287969.875,272746.625,308693.34375,277064.8125,682402.5625,204271.53125,203022.0625,222158.5625
975,287877.78125,272244.78125,308332.40625,276628.34375,681979.625,204027.71875,202612.671875,221738.34375
976,287873.84375,272086.71875,308134.5625,276366.0,681747.3125,203891.640625,202323.890625,221432.3125
977,287964.40625,272554.40625,308412.78125,276690.375,681903.125,204046.765625,202547.40625,221694.09375
978,288006.96875,272881.09375,308693.875,277042.28125,682169.3125,204200.09375,202855.328125,222058.875
979,287925.875,272559.59375,308541.96875,276888.59375,682021.75,204119.09375,202717.375,221937.453125
980,287730.8125,272018.40625,308125.78125,276414.46875,681680.3125,203831.296875,202287.59375,221483.53125
981,287794.90625,272080.1875,308130.78125,276394.4375,681760.5,203879.125,202317.1875,221492.75
982,287877.15625,272617.53125,308454.8125,276769.6875,682036.8125,204060.53125,202661.3125,221873.53125
983,287954.59375,272941.28125,308731.34375,277094.78125,682320.5625,204217.078125,202966.546875,222235.0
984,288015.21875,272721.96875,308689.125,277032.1875,682240.875,204225.21875,202917.546875,222217.125
985,288005.8125,272380.875,308474.46875,276763.4375,681971.5,204144.125,202697.078125,221986.546875
986,288147.15625,272494.6875,308536.625,276803.9375,681983.3125,204258.75,202769.765625,222045.734375
987,288307.65625,273051.6875,308901.21875,277216.71875,682258.3125,204469.203125,203132.484375,222452.4375
988,288261.875,273237.21875,309039.0625,277410.09375,682384.6875,204479.484375,203283.40625,222664.515625
989,288141.1875,272831.9375,308801.6875,277148.84375,682082.5625,204299.953125,203020.90625,222430.4375
990,288062.21875,272459.5625,308554.59375,276858.65625,681888.8125,204176.765625,202792.015625,222183.140625
991,288076.8125,272466.25,308524.53125,276820.65625,681937.0625,204181.046875,202813.484375,222180.28125
992,288205.65625,273021.125,308886.0,277240.6875,682245.75,204387.84375,203193.28125,222595.484375
993,288165.59375,273142.53125,308976.5,277362.0,682311.8125,204358.25,203275.625,222731.390625
994,288067.6875,272684.40625,308692.1875,277034.40625,681950.9375,204142.34375,202922.203125,222395.3125
995,288040.59375,272325.875,308440.3125,276724.25,681772.125,204031.296875,202646.640625,222085.515625
996,288075.90625,272373.1875,308439.96875,276714.53125,681833.125,204095.125,202691.4375,222091.0625
997,288187.9375,272969.34375,308828.4375,277167.1875,682192.0,204353.15625,203135.875,222554.625
998,288235.6875,273261.25,309071.53125,277464.375,682462.0,204464.734375,203419.484375,222884.71875
999,288189.625,272907.21875,308892.28125,277259.1875,682234.375,204335.640625,203224.578125,222704.5625
1000,288065.375,272439.71875,308548.0625,276852.46875,681883.0,204120.078125,202866.59375,222320.296875
1001,288064.90625,272427.90625,308490.84375,276776.03125,681879.5,204108.625,202831.625,222263.171875
1002,288273.5,273064.5625,308939.03125,277277.53125,682278.4375,204422.09375,203302.453125,222770.734375
1003,288326.0625,273341.03125,309170.5,277547.96875,682511.625,204530.546875,203541.96875,223069.796875
1004,288316.59375,273020.40625,309036.5,277381.5,682311.4375,204448.015625,203380.859375,222936.125
1005,288310.4375,272690.3125,308829.15625,277123.28125,682013.0625,204377.5625,203163.59375,222707.609375
1006,288346.375,272746.625,308835.3125,277125.0,682001.75,204448.734375,203213.75,222750.609375
1007,288408.59375,273257.78125,309158.0,277515.53125,682327.5625,204621.109375,203570.84375,223161.34375
1008,288413.4375,273501.15625,309356.5625,277766.125,682576.6875,204688.53125,203794.09375,223454.25
1009,288295.125,273029.6875,309063.65625,277439.875,682234.1875,204418.15625,203450.421875,223135.421875
1010,288147.96875,272426.03125,308599.46875,276886.375,681755.0,204075.8125,202908.34375,222551.234375
1011,288173.90625,272376.5,308494.0625,276737.9375,681663.9375,204041.3125,202768.859375,222365.265625
1012,288265.375,272913.375,308817.875,277116.3125,681930.125,204246.578125,203084.65625,222705.375
1013,288298.53125,273239.1875,309109.4375,277486.5625,682245.8125,204441.21875,203423.953125,223101.09375
1014,288095.40625,272774.96875,308823.6875,277200.4375,681965.25,204211.625,203135.25,222846.90625
1015,288006.4375,272348.875,308521.0625,276846.75,681727.625,204031.734375,202821.078125,222517.171875
1016,287976.21875,272283.0625,308413.40625,276716.3125,681742.25,203951.8125,202731.578125,222404.0625
1017,288441.78125,273182.125,309104.0,277447.03125,682410.125,204505.859375,203434.5,223138.28125
1018,288626.5625,273624.15625,309492.71875,277879.9375,682806.5625,204773.640625,203848.015625,223614.90625
1019,288502.375,273180.4375,309225.03125,277579.96875,682454.75,204559.859375,203538.21875,223339.171875
1020,288512.125,272857.25,309019.40625,277321.0625,682134.0625,204492.28125,203318.984375,223099.390625
1021,288474.21875,272814.9375,308929.375,277215.03125,681986.375,204466.34375,203248.796875,223016.421875
1022,288517.9375,273315.28125,309230.21875,277572.65625,682267.875,204626.203125,203580.953125,223392.734375
1023,288516.6875,273585.625,309449.53125,277850.34375,682534.5,204698.0,203842.640625,223714.421875
1024,288407.625,273169.90625,309220.65625,277605.09375,682282.8125,204509.265625,203604.640625,223503.5
1025,288272.59375,272643.375,308819.40625,277138.65625,681859.9375,204262.59375,203169.671875,223033.859375
1026,288285.03125,272576.5,308696.1875,276978.71875,681772.3125,204214.21875,203040.9375,222844.125
1027,288430.21875,273182.84375,309100.78125,277448.46875,682149.0,204470.109375,203495.125,223289.828125
1028,288457.15625,273454.75,309327.5,277722.75,682380.5625,204555.84375,203764.40625,223580.390625
1029,288382.75,273098.375,309145.5625,277519.53125,682157.1875,204433.984375,203576.21875,223395.5
1030,288265.1875,272648.125,308813.0625,277126.59375,681853.75,204243.015625,203229.484375,223015.25
1031,288271.1875,272662.96875,308767.375,277057.75,681897.1875,204256.421875,203220.109375,222973.0625
1032,288401.625,273249.03125,309147.0,277491.03125,682252.5,204500.234375,203633.796875,223410.53125
1033,288389.1875,273477.625,309320.53125,277710.96875,682451.1875,204542.96875,203835.21875,223652.375
1034,288321.15625,273080.03125,309109.625,277467.5,682189.375,204379.53125,203604.375,223423.75
1035,288275.90625,272674.03125,308834.875,277129.625,681891.125,204244.078125,203313.265625,223093.125
1036,288429.875,272819.9375,308920.96875,277195.4375,681964.875,204392.5,203420.015625,223169.9375
1037,288609.3125,273442.03125,309342.0,277670.71875,682335.3125,204671.890625,203847.46875,223646.109375
1038,288569.34375,273656.71875,309502.75,277885.9375,682515.5625,204708.640625,204001.4375,223883.046875
1039,288434.15625,273232.75,309247.9375,277609.84375,682228.375,204504.703125,203711.65625,223636.28125
1040,288366.125,272778.375,308925.53125,277219.75,681902.6875,204306.578125,203342.59375,223251.640625
1041,288407.0625,272782.03125,308897.46875,277181.65625,681894.1875,204347.703125,203327.03125,223210.25
1042,288441.59375,273266.09375,309189.09375,277541.34375,682146.1875,204492.90625,203668.125,223563.765625
1043,288454.71875,273526.71875,309398.0625,277801.4375,682378.6875,204557.984375,203914.703125,223844.328125
1044,288400.625,273146.90625,309194.03125,277567.375,682126.625,204407.515625,203681.078125,223623.671875
1045,288358.625,272699.875,308872.78125,277171.125,681806.125,204220.03125,203297.625,223209.265625
1046,288423.25,272723.40625,308842.84375,277117.3125,681808.8125,204261.515625,203262.21875,223138.1875
1047,288581.96875,273364.4375,309276.90625,277620.21875,682216.9375,204578.015625,203734.28125,223636.28125
1048,288590.625,273636.25,309491.375,277890.21875,682459.75,204663.578125,203972.015625,223928.640625
1049,288443.5625,273181.5,309214.59375,277589.90625,682126.0,204426.203125,203662.9375,223638.328125
1050,288367.75,272746.1875,308911.21875,277226.46875,681819.5,204258.390625,203336.15625,223280.796875
1051,288350.03125,272678.78125,308801.625,277093.0625,681776.625,204189.984375,203222.15625,223138.28125
1052,288565.25,273334.5,309276.09375,277634.4375,682229.5625,204515.25,203729.8125,223674.1875
1053,288705.78125,273738.0625,309620.3125,278024.25,682593.5,204751.5625,204098.078125,224091.984375
1054,288682.625,273409.3125,309459.75,277831.40625,682371.625,204645.078125,203893.421875,223911.828125
1055,288575.6875,272964.25,309120.96875,277430.3125,681968.625,204434.15625,203506.46875,223512.0
1056,288590.28125,272940.125,309050.6875,277338.125,681910.5625,204426.46875,203425.65625,223412.671875
1057,288646.59375,273470.125,309375.0625,277724.71875,682188.125,204622.90625,203763.78125,223783.34375
1058,288617.09375,273699.28125,309567.90625,277972.75,682423.0,204698.890625,203985.515625,224056.484375
1059,288558.625,273288.1875,309360.6875,277735.28125,682157.0625,204534.921875,203731.328125,223820.71875
1060,288510.59375,272863.6875,309073.59375,277384.90625,681872.125,204385.34375,203403.125,223457.640625
1061,288524.28125,272825.21875,308992.59375,277278.40625,681848.75,204373.90625,203318.546875,223333.28125
1062,288616.28125,273328.5,309296.9375,277630.59375,682081.9375,204548.0625,203618.234375,223650.140625
1063,288662.59375,273632.9375,309542.8125,277924.1875,682324.125,204678.421875,203877.515625,223950.359375
1064,288603.59375,273298.09375,309382.21875,277740.8125,682123.6875,204573.375,203694.40625,223778.875
1065,288526.875,272882.71875,309093.34375,277399.28125,681876.9375,204409.21875,203377.1875,223436.453125
1066,288561.40625,272887.8125,309038.4375,277312.46875,681882.8125,204415.296875,203323.71875,223354.46875
1067,288662.34375,273420.5,309374.90625,277703.09375,682177.5,204614.9375,203679.203125,223739.90625
1068,288733.0625,273755.59375,309656.53125,278039.875,682486.25,204766.9375,203985.25,224096.359375
1069,288672.34375,273379.28125,309456.59375,277811.0,682212.5625,204623.34375,203743.84375,223869.890625
1070,288649.625,272978.90625,309173.28125,277452.5625,681865.3125,204477.609375,203409.203125,223503.234375
1071,288643.375,272939.65625,309104.6875,277368.875,681857.5,204450.875,203353.140625,223411.515625
1072,288810.5625,273608.625,309559.15625,277888.625,682297.125,204772.390625,203841.84375,223935.171875
1073,288878.78125,273942.28125,309844.28125,278233.625,682624.25,204925.0,204146.890625,224310.046875
1074,288787.3125,273582.3125,309661.8125,278033.375,682413.875,204774.890625,203930.625,224134.71875
1075,288671.53125,273102.84375,309328.03125,277636.9375,682043.75,204555.03125,203555.828125,223747.765625
1076,288661.15625,272963.8125,309167.8125,277430.75,681913.5,204446.40625,203347.515625,223515.84375
1077,288771.9375,273458.21875,309473.25,277783.1875,682139.875,204604.75,203624.484375,223813.125
1078,288761.84375,273657.59375,309611.375,277950.3125,682214.4375,204633.625,203735.171875,223961.0
1079,288691.125,273247.5,309374.96875,277683.0625,681893.9375,204462.859375,203432.796875,223659.34375
1080,288639.53125,272889.5,309141.28125,277405.375,681761.5,204367.640625,203201.15625,223378.25
1081,288649.90625,272905.25,309093.53125,277348.6875,681777.0625,204386.859375,203179.515625,223309.859375
1082,288684.6875,273409.78125,309379.375,277702.03125,682020.5,204565.046875,203495.5625,223643.515625
1083,288651.15625,273687.28125,309588.75,277970.25,682295.8125,204657.5,203777.015625,223954.921875
1084,288602.96875,273350.03125,309446.40625,277814.59375,682150.5,204529.46875,203653.546875,223838.875
1085,288667.25,273021.75,309246.59375,277542.53125,681902.5625,204434.96875,203420.90625,223577.09375
1086,288892.46875,273185.09375,309367.46875,277631.125,681959.25,204624.953125,203543.125,223667.65625
1087,289088.0,273822.65625,309786.53125,278094.78125,682298.3125,204927.0625,203967.546875,224124.4375
1088,289126.90625,274143.625,310048.84375,278417.375,682587.6875,205078.875,204243.640625,224470.0
1089,288985.09375,273699.0,309797.96875,278159.53125,682303.5,204859.46875,203961.640625,224226.28125
1090,288821.84375,273159.15625,309399.65625,277700.9375,681926.375,204559.6875,203535.078125,223774.40625
1091,288820.40625,273129.65625,309318.75,277585.4375,681939.625,204552.53125,203468.921875,223674.1875
1092,288948.0625,273723.6875,309703.8125,278032.8125,682300.4375,204812.4375,203886.453125,224109.6875
1093,288954.34375,273974.46875,309898.46875,278281.375,682502.6875,204885.125,204106.390625,224366.90625
1094,288825.6875,273487.46875,309588.40625,277926.0,682107.75,204628.53125,203746.984375,224003.5625
1095,288751.84375,273047.40625,309267.0625,277537.78125,681801.625,204463.125,203392.84375,223592.109375
1096,288808.34375,273081.65625,309234.6875,277482.4375,681809.4375,204496.390625,203377.734375,223518.4375
1097,288923.21875,273691.21875,309634.25,277953.4375,682201.3125,204772.296875,203847.296875,223989.796875
1098,288919.125,273978.65625,309859.03125,278234.25,682478.625,204866.359375,204128.65625,224306.5625
1099,288852.15625,273613.625,309662.96875,278011.46875,682237.3125,204721.25,203911.75,224098.421875
1100,288798.9375,273226.21875,309391.78125,277679.21875,681940.5,204602.421875,203628.0625,223778.4375
1101,288830.6875,273272.71875,309356.21875,277618.34375,681928.4375,204645.34375,203625.109375,223730.328125
1102,288934.5,273786.4375,309689.34375,278008.59375,682230.0625,204839.53125,204006.703125,224123.90625
1103,288952.5625,274042.3125,309923.84375,278303.71875,682512.625,204940.921875,204296.03125,224450.859375
1104,288857.96875,273621.125,309682.09375,278029.34375,682223.75,204736.796875,204035.5,224199.8125
1105,288809.59375,273179.0,309373.5625,277653.28125,681892.375,204561.390625,203690.46875,223819.296875
1106,288943.25,273301.9375,309440.34375,277698.71875,681952.75,204711.6875,203782.203125,223874.015625
1107,289054.65625,273842.5,309779.46875,278091.125,682234.5625,204924.46875,204141.890625,224261.40625
1108,289116.78125,274191.46875,310065.1875,278436.3125,682563.6875,205080.484375,204453.734375,224631.5625
1109,289007.71875,273781.625,309829.71875,278179.0,682292.1875,204891.390625,204183.828125,224392.03125
1110,288939.75,273348.0,309524.75,277814.125,681964.875,204716.421875,203836.203125,224030.296875
1111,288938.40625,273343.4375,309475.75,277756.125,681954.875,204734.203125,203815.828125,223983.796875
1112,289049.90625,273837.40625,309778.03125,278098.1875,682181.0625,204902.296875,204111.046875,224302.09375
1113,289046.78125,274033.21875,309926.25,278280.46875,682284.375,204925.625,204233.625,224467.578125
1114,288902.84375,273552.375,309620.75,277938.5,681929.125,204681.546875,203857.671875,224098.25
1115,288863.9375,273178.75,309377.03125,277651.875,681787.3125,204579.359375,203592.03125,223795.875
1116,288893.4375,273212.0,309357.0,277619.9375,681849.3125,204614.671875,203605.0,223768.78125
1117,289039.625,273819.0,309756.375,278078.78125,682219.625,204889.59375,204040.234375,224219.125
1118,289079.78125,274139.15625,310007.34375,278388.21875,682498.8125,205015.9375,204324.71875,224545.1875
1119,288996.8125,273773.84375,309799.9375,278158.875,682241.1875,204855.71875,204090.125,224325.96875
1120,288944.5,273381.25,309525.28125,277827.5625,681912.6875,204730.28125,203785.515625,223990.15625
1121,288969.4375,273366.6875,309468.15625,277748.875,681912.5,204744.40625,203749.84375,223917.109375
1122,289078.625,273889.15625,309804.59375,278141.375,682203.875,204943.25,204113.546875,224298.328125
1123,289138.0625,274195.75,310052.78125,278442.21875,682452.5,205047.140625,204376.578125,224603.578125
1124,289022.28125,273760.6875,309796.625,278160.15625,682139.3125,204830.0625,204081.0,224326.765625
1125,288955.84375,273327.25,309488.15625,277790.4375,681862.1875,204655.625,203728.203125,223950.0
1126,289018.875,273366.9375,309477.625,277762.8125,681885.9375,204693.703125,203730.796875,223918.71875
1127,289118.9375,273906.5,309815.84375,278162.03125,682161.75,204906.59375,204090.75,224299.671875
1128,289125.1875,274177.34375,310016.375,278411.90625,682360.0,205001.625,204300.671875,224551.890625
1129,289070.125,273856.90625,309857.0625,278231.75,682149.4375,204921.25,204118.203125,224380.953125
1130,288984.90625,273421.5625,309577.40625,277908.28125,681892.9375,204711.234375,203847.46875,224069.625
1131,288988.03125,273356.21875,309479.9375,277779.4375,681868.1875,204642.5625,203764.234375,223937.75
1132,289118.5625,273905.625,309832.84375,278182.75,682162.5,204889.515625,204122.40625,224316.484375
1133,289118.3125,274173.03125,310036.0625,278437.46875,682368.375,204981.0625,204333.40625,224578.265625
1134,289029.78125,273799.3125,309828.90625,278206.1875,682110.875,204827.1875,204089.234375,224351.0
1135,288963.90625,273395.28125,309546.1875,277864.28125,681851.4375,204683.96875,203774.515625,224006.78125
1136,289007.96875,273394.3125,309510.4375,277808.15625,681876.8125,204712.75,203751.625,223951.171875
1137,289147.8125,273967.84375,309885.21875,278239.09375,682202.625,204960.328125,204146.625,224368.25
1138,289174.375,274260.125,310110.25,278513.9375,682438.375,205061.34375,204382.75,224653.640625
1139,289098.625,273889.625,309913.125,278293.4375,682191.4375,204915.890625,204146.359375,224443.890625
1140,289014.59375,273433.46875,309590.71875,277903.09375,681866.0,204730.640625,203776.65625,224050.59375
1141,289040.53125,273415.03125,309528.125,277812.625,681856.25,204724.015625,203719.078125,223955.015625
1142,289173.90625,273982.0625,309899.71875,278244.90625,682181.5625,204953.078125,204113.375,224372.1875
1143,289209.6875,274301.15625,310154.875,278555.15625,682461.1875,205087.453125,204393.390625,224699.0625
1144,289154.6875,273960.6875,309983.9375,278364.4375,682243.0625,204960.5,204197.40625,224515.0625
1145,289062.96875,273513.75,309673.875,277993.21875,681916.8125,204782.21875,203871.515625,224158.140625
1146,289079.59375,273492.1875,309593.75,277882.34375,681893.3125,204756.65625,203802.5,224051.84375
1147,289192.15625,274027.3125,309941.65625,278289.875,682201.5625,204964.078125,204179.078125,224447.640625
1148,289195.1875,274253.59375,310126.71875,278525.90625,682394.25,205015.75,204379.09375,224690.75
1149,289118.75,273890.59375,309937.25,278314.8125,682161.0625,204871.1875,204163.34375,224489.84375
1150,289057.4375,273460.90625,309644.4375,277962.8125,681873.375,204719.28125,203843.890625,224140.890625
1151,289026.75,273310.71875,309456.4375,277725.28125,681734.75,204595.625,203623.5,223876.515625
1152,289174.625,273863.25,309799.5625,278119.0,682022.625,204814.234375,203959.5,224218.40625
1153,289265.65625,274268.875,310136.09375,278528.0625,682374.9375,205036.046875,204346.09375,224638.34375
1154,289157.75,273883.625,309919.5625,278290.59375,682110.1875,204874.21875,204112.828125,224411.25
1155,289059.125,273440.15625,309593.84375,277909.71875,681796.375,204691.296875,203764.0625,224026.53125
1156,289040.625,273360.96875,309480.40625,277777.9375,681766.125,204643.640625,203667.671875,223888.40625
1157,289144.78125,273882.09375,309793.6875,278147.8125,682021.375,204819.234375,203990.4375,224232.171875
1158,289224.25,274230.71875,310068.25,278466.625,682276.6875,204968.640625,204276.625,224561.546875
1159,289227.75,273969.625,309967.40625,278341.28125,682120.8125,204894.34375,204156.734375,224449.078125
1160,289159.25,273556.40625,309697.28125,278014.9375,681848.125,204749.40625,203876.703125,224136.859375
1161,289205.21875,273528.875,309652.78125,277942.875,681857.8125,204785.0,203846.75,224074.1875
1162,289336.5625,274081.5,310009.21875,278354.59375,682160.4375,205011.8125,204216.8125,224476.875
1163,289385.71875,274423.375,310275.5625,278677.90625,682448.0625,205150.578125,204495.140625,224817.875
1164,289302.9375,274071.5625,310086.21875,278463.21875,682210.875,205005.5625,204269.921875,224619.484375
1165,289197.96875,273601.28125,309752.375,278067.875,681878.4375,204807.96875,203912.296875,224230.828125
1166,289192.4375,273517.9375,309642.3125,277934.75,681858.25,204760.859375,203823.0625,224093.6875
1167,289310.8125,274062.0,309987.78125,278339.40625,682175.25,204982.84375,204204.921875,224482.328125
1168,289319.28125,274302.3125,310172.5,278563.375,682349.6875,205040.421875,204400.984375,224713.09375
1169,289230.34375,273810.84375,309860.09375,278198.75,681933.25,204775.15625,203995.625,224304.5
