Unnamed: 0,EEG 1,EEG 2,EEG 3,EEG 4,EEG 5,EEG 6,EEG 7,EEG 8
0,285780.75,271036.375,306989.0625,275451.1875,682588.9375,202713.875,201612.5625,222430.09375
1,285730.0625,270884.5625,306932.90625,275397.5625,682533.0,202645.21875,201552.484375,222400.671875
2,285659.40625,270469.34375,306672.9375,275086.875,682222.0625,202510.65625,201269.78125,222103.3125
3,285657.625,270247.71875,306510.125,274891.15625,682094.0,202451.921875,201118.59375,221914.03125
4,285752.75,270618.125,306731.84375,275151.6875,682292.9375,202597.921875,201373.046875,222162.140625
5,285826.875,271066.21875,307038.6875,275514.78125,682583.9375,202758.765625,201693.5625,222512.96875
6,285746.40625,270828.15625,306894.46875,275362.875,682381.8125,202622.0625,201520.46875,222351.140625
7,285692.21875,270434.125,306645.375,275063.96875,682106.25,202495.453125,201247.96875,222051.0
8,285689.1875,270198.8125,306451.1875,274806.84375,681989.75,202428.140625,201025.078125,221782.328125
9,285808.65625,270587.90625,306694.5625,275086.40625,682214.6875,202604.53125,201264.421875,222019.078125
10,285876.84375,271084.125,307042.25,275507.96875,682550.875,202795.234375,201633.578125,222430.890625
11,285814.625,270940.78125,306975.46875,275423.5625,682464.875,202720.765625,201560.796875,222380.5625
12,285729.78125,270500.375,306706.90625,275101.15625,682157.8125,202575.203125,201278.546875,222072.640625
13,285687.59375,270217.6875,306481.875,274827.5,682012.9375,202460.859375,201054.21875,221799.234375
14,285753.9375,270577.71875,306665.15625,275035.28125,682177.4375,202618.21875,201248.59375,221980.90625
15,285844.5,271108.15625,307026.71875,275454.0625,682526.3125,202844.328125,201636.703125,222392.53125
16,285862.03125,271013.125,307055.6875,275492.875,682574.75,202835.46875,201695.796875,222463.890625
17,285784.84375,270569.59375,306770.1875,275137.65625,682246.0625,202683.65625,201387.4375,222129.953125
18,285781.46875,270350.25,306580.125,274888.65625,682096.875,202604.09375,201173.578125,221881.046875
19,285913.34375,270755.8125,306846.28125,275191.84375,682310.125,202815.8125,201438.765625,222156.140625
20,285965.8125,271193.1875,307164.75,275574.84375,682640.125,202976.015625,201788.609375,222549.0
21,285892.25,271021.53125,307085.1875,275493.40625,682552.5,202892.78125,201712.34375,222493.921875
22,285795.3125,270544.71875,306771.34375,275117.53125,682185.9375,202674.625,201367.234375,222124.859375
23,285791.90625,270315.40625,306588.0,274889.53125,682072.8125,202607.578125,201175.984375,221889.796875
24,285862.1875,270667.03125,306775.125,275111.90625,682233.1875,202748.578125,201376.890625,222091.140625
25,285900.1875,271112.1875,307075.96875,275474.0,682539.25,202902.265625,201713.234375,222463.703125
26,285871.59375,270982.375,307046.28125,275434.65625,682511.8125,202871.140625,201697.140625,222459.6875
27,285806.3125,270537.5625,306761.625,275091.5,682167.5,202722.28125,201362.40625,222104.5625
28,285751.25,270226.53125,306490.1875,274766.53125,681945.875,202550.0,201039.203125,221743.890625
29,285782.0,270543.375,306647.25,274942.65625,682110.5625,202669.53125,201200.484375,221897.484375
30,285724.0625,270900.125,306867.90625,275232.15625,682326.5625,202737.84375,201451.28125,222190.484375
31,285629.03125,270713.0,306777.0,275146.9375,682244.5,202615.984375,201374.75,222134.15625
32,285621.5,270373.25,306577.625,274880.0625,682035.1875,202542.84375,201152.390625,221885.421875
33,285770.46875,270310.03125,306556.34375,274797.625,682080.9375,202641.109375,201134.421875,221813.171875
34,286044.40625,270871.78125,306964.75,275229.375,682432.125,203004.453125,201565.8125,222236.96875
35,286066.65625,271300.9375,307262.21875,275596.40625,682743.75,203148.671875,201894.015625,222609.890625
36,285945.15625,271087.15625,307138.09375,275482.3125,682614.1875,203033.59375,201768.765625,222511.984375
37,285842.625,270618.21875,306823.84375,275114.59375,682251.1875,202821.796875,201417.75,222153.1875
38,285790.3125,270335.15625,306594.4375,274835.625,682091.0625,202694.21875,201180.46875,221875.5
39,285869.53125,270706.8125,306812.21875,275085.96875,682286.875,202859.078125,201422.125,222113.9375
40,285932.28125,271171.28125,307147.5,275496.8125,682640.375,203039.40625,201796.75,222529.421875
41,285851.03125,270958.0625,307026.09375,275372.0625,682490.3125,202900.921875,201666.75,222414.171875
42,285762.5,270467.375,306678.09375,274947.21875,682088.8125,202674.625,201265.484375,221976.34375
43,285723.96875,270186.5625,306438.9375,274642.34375,681914.5625,202564.125,201002.90625,221651.703125
44,285827.59375,270602.375,306697.34375,274943.53125,682174.625,202762.15625,201287.75,221926.28125
45,285864.625,271064.1875,307019.8125,275336.84375,682507.125,202931.671875,201650.5625,222321.640625
46,285807.9375,270922.5625,306970.1875,275281.40625,682458.875,202875.078125,201610.328125,222298.5625
47,285754.8125,270525.21875,306717.28125,274962.3125,682166.0,202740.4375,201327.796875,221992.53125
48,285755.8125,270305.03125,306544.25,274743.71875,682071.0,202688.578125,201157.21875,221771.15625
49,285852.28125,270685.53125,306764.5625,274992.1875,682247.9375,202840.75,201398.609375,222000.125
50,285906.28125,271159.84375,307083.3125,275368.40625,682574.75,203012.046875,201751.859375,222380.640625
51,285843.875,271004.0,307014.46875,275303.15625,682494.8125,202942.5,201685.515625,222332.453125
52,285775.65625,270565.71875,306749.28125,274986.28125,682196.3125,202792.46875,201396.921875,222024.625
53,285757.5,270345.96875,306573.15625,274762.0625,682107.9375,202728.28125,201221.328125,221808.703125
54,285879.71875,270751.0625,306819.46875,275037.59375,682322.4375,202913.890625,201474.4375,222068.609375
55,285930.21875,271172.53125,307111.09375,275396.84375,682608.6875,203050.5,201768.84375,222415.421875
56,285829.5625,270896.71875,306938.0,275206.9375,682363.375,202864.4375,201541.21875,222207.46875
57,285739.8125,270434.125,306636.96875,274842.0625,682047.875,202701.28125,201194.234375,221832.84375
58,285710.125,270202.21875,306442.6875,274602.0,681963.9375,202638.875,200996.1875,221582.421875
59,285794.25,270553.9375,306643.5,274842.96875,682152.125,202772.4375,201204.0625,221783.578125
60,285818.375,270953.3125,306923.34375,275206.03125,682403.4375,202890.734375,201494.09375,222114.921875
61,285630.09375,270672.5,306735.34375,275026.6875,682223.9375,202680.53125,201307.59375,221950.421875
62,285545.875,270246.1875,306451.1875,274677.65625,682007.5625,202514.6875,200987.4375,221607.625
63,285643.59375,270121.8125,306374.84375,274561.15625,682018.875,202571.90625,200900.703125,221471.90625
64,285853.625,270609.53125,306700.28125,274918.78125,682301.1875,202851.828125,201243.578125,221804.328125
65,285990.21875,271161.53125,307107.4375,275399.34375,682709.0625,203083.578125,201679.890625,222284.625
66,285915.84375,271004.53125,307033.9375,275328.4375,682619.875,203013.484375,201596.5625,222234.546875
67,285798.28125,270549.5625,306713.6875,274951.15625,682219.25,202825.734375,201225.25,221860.921875
68,285768.75,270293.3125,306512.875,274711.71875,682068.3125,202729.53125,201013.453125,221614.515625
69,285847.0,270640.125,306728.1875,274982.875,682270.3125,202883.03125,201247.515625,221856.09375
70,285892.5,271102.34375,307057.1875,275395.84375,682622.5625,203050.671875,201617.21875,222277.46875
71,285860.75,270965.28125,307021.625,275374.125,682579.75,202989.875,201581.09375,222272.546875
72,285803.625,270518.34375,306727.46875,275020.4375,682228.3125,202814.46875,201239.375,221906.515625
73,285766.96875,270235.375,306487.5,274725.21875,682052.1875,202692.875,200984.578125,221591.546875
74,285835.8125,270560.90625,306667.8125,274939.15625,682199.25,202799.078125,201182.15625,221766.6875
75,285899.46875,271038.4375,306994.25,275331.84375,682499.0,202989.25,201530.578125,222143.8125
76,285862.65625,270926.3125,306965.8125,275316.375,682450.5625,202963.328125,201499.46875,222132.71875
77,285768.9375,270488.03125,306686.875,274980.375,682157.9375,202812.859375,201204.25,221820.875
78,285713.78125,270224.8125,306451.1875,274687.40625,682001.4375,202702.4375,200954.890625,221524.21875
79,285824.5625,270610.875,306692.5,274966.78125,682225.0625,202889.203125,201214.703125,221776.34375
80,285839.125,271039.3125,306989.96875,275329.34375,682532.25,203031.90625,201554.984375,222148.71875
81,285730.21875,270848.4375,306883.21875,275225.90625,682426.3125,202906.828125,201463.4375,222070.9375
82,285677.3125,270446.5625,306635.8125,274923.875,682132.6875,202772.171875,201196.46875,221779.5625
83,285747.3125,270292.15625,306530.6875,274765.53125,682073.5,202788.71875,201091.234375,221625.328125
84,285951.96875,270784.34375,306870.15625,275137.28125,682360.25,203082.0625,201447.609375,221980.8125
85,286071.40625,271324.1875,307268.46875,275609.4375,682774.9375,203335.703125,201874.078125,222454.234375
86,285934.875,271124.96875,307152.3125,275498.21875,682688.3125,203209.375,201778.140625,222390.5625
87,285818.375,270697.59375,306875.6875,275175.8125,682392.0,203042.453125,201499.734375,222111.4375
88,285752.6875,270365.5625,306610.78125,274864.5,682152.0,202875.96875,201210.328125,221795.125
89,285818.75,270609.90625,306720.75,274989.40625,682186.5625,202925.59375,201279.078125,221865.65625
90,285880.53125,270961.09375,306942.40625,275249.0625,682280.9375,203002.390625,201443.40625,222067.28125
91,285827.25,270825.625,306891.96875,275210.6875,682184.8125,202954.296875,201381.71875,222017.296875
92,285757.5,270447.71875,306669.0625,274957.125,682032.75,202853.625,201168.65625,221774.46875
93,285717.8125,270179.75,306448.0625,274692.40625,681922.9375,202756.078125,200945.5,221500.25
94,285814.71875,270567.6875,306670.59375,274951.0625,682150.625,202919.25,201184.125,221732.359375
95,285861.65625,271055.3125,307002.21875,275362.59375,682479.0625,203106.28125,201552.484375,222143.53125
96,285825.1875,270945.0,306968.40625,275338.8125,682437.5625,203073.75,201517.890625,222137.015625
97,285718.25,270488.5625,306664.875,274990.65625,682122.0625,202878.296875,201187.078125,221790.65625
98,285651.71875,270192.46875,306422.6875,274693.9375,681980.5625,202752.765625,200947.640625,221503.03125
99,285767.5,270575.3125,306658.0,274957.84375,682181.8125,202927.296875,201192.4375,221745.046875
100,285892.9375,271124.25,307058.71875,275425.8125,682571.625,203176.734375,201609.703125,222210.59375
101,285874.90625,271006.6875,307048.53125,275422.78125,682552.5,203154.921875,201595.578125,222232.59375
102,285837.78125,270607.3125,306821.59375,275150.15625,682282.625,203014.5625,201349.359375,221980.640625
103,285829.03125,270359.84375,306631.09375,274909.03125,682136.1875,202947.953125,201144.25,221747.015625
104,285891.0625,270690.09375,306804.09375,275112.15625,682261.9375,203068.5625,201307.78125,221924.9375
105,285931.03125,271121.40625,307101.71875,275489.1875,682550.0,203205.34375,201614.0,222290.875
106,285847.4375,270936.9375,307013.375,275424.5625,682440.75,203109.6875,201512.96875,222221.953125
107,285756.78125,270485.28125,306708.5,275050.03125,682113.125,202928.015625,201175.453125,221866.5625
108,285715.03125,270229.375,306502.15625,274803.8125,682010.5625,202845.125,200961.765625,221613.4375
109,285794.25,270572.25,306695.8125,275025.09375,682215.25,202966.28125,201169.640625,221820.328125
110,285873.625,271058.625,307031.4375,275420.96875,682526.0,203157.515625,201519.21875,222209.96875
111,285800.59375,270907.96875,306959.125,275347.40625,682430.875,203095.921875,201433.3125,222152.75
112,285702.78125,270467.125,306668.4375,274999.25,682116.1875,202928.71875,201105.0,221814.4375
113,285704.46875,270261.46875,306507.15625,274787.09375,682042.0625,202894.21875,200941.296875,221609.6875
114,285833.21875,270676.78125,306760.8125,275071.5625,682252.875,203075.984375,201205.859375,221877.546875
115,285895.375,271130.34375,307091.625,275471.6875,682588.75,203253.8125,201563.921875,222281.9375
116,285820.625,270955.375,307019.90625,275405.15625,682507.5,203182.90625,201489.625,222237.5
117,285743.28125,270539.28125,306753.46875,275083.65625,682212.9375,203038.15625,201205.3125,221940.140625
118,285718.25,270246.5625,306528.1875,274809.15625,682055.0,202944.109375,200964.453125,221658.140625
119,285826.625,270650.84375,306772.53125,275099.84375,682301.5,203145.265625,201232.859375,221930.65625
120,285875.53125,271134.1875,307112.625,275519.0625,682673.375,203341.34375,201623.109375,222369.5625
121,285790.21875,270950.90625,307016.6875,275429.46875,682571.0,203236.015625,201519.578125,222299.109375
122,285712.09375,270510.21875,306736.65625,275105.65625,682256.1875,203069.90625,201204.0625,221974.828125
123,285709.21875,270252.90625,306527.28125,274836.96875,682095.0625,202984.96875,200961.6875,221698.375
124,285778.25,270540.0625,306661.46875,274991.75,682146.0625,203073.921875,201059.046875,221800.75
125,285799.4375,270891.96875,306856.90625,275230.0,682229.0,203154.921875,201214.171875,221981.53125
126,285766.96875,270819.65625,306862.09375,275253.15625,682211.1875,203196.5,201236.078125,222011.21875
127,285674.34375,270409.53125,306617.40625,274979.5,682042.4375,203053.625,201022.84375,221755.0625
128,285643.3125,270172.0625,306415.0625,274731.375,681980.0,202965.203125,200852.15625,221521.171875
129,285680.15625,270505.375,306582.71875,274936.40625,682170.625,203081.703125,201063.875,221717.875
130,285722.4375,270990.78125,306902.78125,275328.96875,682503.9375,203256.765625,201441.796875,222125.203125
131,285660.5,270860.96875,306849.40625,275282.75,682458.1875,203201.859375,201413.28125,222111.0
132,285585.40625,270436.375,306570.65625,274952.03125,682137.8125,203051.03125,201120.203125,221784.65625
133,285661.84375,270293.59375,306476.6875,274818.8125,682084.375,203087.328125,201040.71875,221649.828125
134,285868.625,270797.3125,306823.75,275201.5625,682393.1875,203373.53125,201432.5,222040.09375
135,285900.09375,271246.3125,307128.28125,275573.0625,682733.4375,203536.6875,201781.71875,222437.6875
136,285810.34375,271070.71875,307041.09375,275495.0,682645.625,203447.734375,201686.953125,222386.375
137,285707.4375,270617.59375,306750.96875,275155.09375,682293.625,203292.34375,201362.046875,222065.75
138,285670.59375,270343.90625,306542.9375,274892.21875,682126.1875,203198.734375,201154.0,221834.015625
139,285760.4375,270669.28125,306727.5625,275099.375,682267.625,203319.171875,201335.046875,222023.734375
140,285803.09375,271101.90625,307022.25,275457.8125,682561.625,203471.875,201656.640625,222383.0625
141,285728.25,270917.71875,306945.15625,275390.125,682483.25,203405.890625,201588.25,222337.109375
142,285668.0,270486.875,306683.21875,275084.28125,682177.0,203257.75,201300.890625,222035.0
143,285640.46875,270222.6875,306459.875,274801.9375,682033.375,203168.0625,201064.5,221756.9375
144,285718.15625,270549.1875,306624.375,274983.34375,682178.75,203295.65625,201213.0,221907.328125
145,285771.625,270990.59375,306940.6875,275371.53125,682485.1875,203468.46875,201554.453125,222288.734375
146,285685.78125,270838.59375,306867.65625,275307.875,682421.9375,203402.3125,201489.28125,222250.015625
147,285577.15625,270385.3125,306560.34375,274948.5625,682089.5625,203218.859375,201152.921875,221900.171875
148,285541.03125,270115.03125,306349.09375,274692.65625,681991.25,203123.640625,200956.671875,221648.671875
149,285689.8125,270542.21875,306622.0625,274999.875,682259.5625,203335.53125,201258.15625,221936.65625
150,285863.53125,271143.84375,307073.09375,275519.5,682725.375,203645.140625,201752.3125,222462.90625
151,285786.375,270996.5,307013.5625,275466.75,682676.375,203585.0625,201705.28125,222439.03125
152,285680.15625,270521.65625,306698.9375,275099.28125,682304.0,203392.296875,201362.3125,222086.3125
153,285640.71875,270253.25,306485.0,274841.1875,682113.75,203308.890625,201139.6875,221833.296875
154,285717.8125,270615.53125,306694.375,275091.78125,682296.75,203456.3125,201366.703125,222072.453125
155,285766.09375,271090.375,307023.125,275499.46875,682662.8125,203630.21875,201728.96875,222484.890625
156,285691.34375,270878.46875,306931.84375,275409.625,682575.625,203527.3125,201632.953125,222418.28125
157,285611.84375,270416.25,306625.8125,275036.53125,682213.0625,203337.671875,201286.671875,222054.484375
158,285565.53125,270078.8125,306347.125,274693.03125,681997.5625,203194.625,200981.359375,221694.453125
159,285635.1875,270320.03125,306459.25,274821.78125,682083.75,203266.59375,201067.265625,221757.75
160,285692.9375,270777.625,306759.75,275180.75,682325.3125,203442.1875,201375.640625,222084.53125
161,285642.25,270685.53125,306735.96875,275168.3125,682289.0,203425.828125,201361.6875,222084.796875
162,285592.1875,270305.375,306506.71875,274898.40625,682051.375,203304.328125,201111.53125,221819.703125
163,285551.78125,270056.125,306294.09375,274645.375,681947.9375,203212.140625,200892.84375,221562.484375
164,285619.71875,270417.0625,306485.0,274873.53125,682144.8125,203365.203125,201103.21875,221766.0625
165,285668.53125,270887.40625,306805.34375,275266.5,682468.6875,203529.625,201463.4375,222157.84375
166,285594.96875,270708.53125,306729.875,275197.71875,682398.8125,203423.953125,201404.6875,222111.53125
167,285571.96875,270308.875,306490.1875,274897.6875,682114.375,203295.109375,201137.546875,221823.46875
168,285692.15625,270173.0625,306406.75,274758.03125,682085.0625,203347.15625,201035.984375,221684.96875
169,285845.75,270583.78125,306656.03125,275031.875,682280.25,203557.609375,201274.78125,221934.140625
170,285905.125,271078.9375,306991.03125,275441.28125,682624.0,203767.1875,201631.4375,222343.71875
171,285811.6875,270906.90625,306922.1875,275394.59375,682592.875,203649.34375,201595.671875,222336.484375
172,285707.0,270408.65625,306600.875,275017.5625,682217.0,203428.59375,201252.078125,221975.90625
173,285660.84375,270080.15625,306337.375,274696.59375,682010.0625,203288.140625,200969.734375,221645.984375
174,285733.28125,270372.0,306485.71875,274871.5,682142.4375,203380.859375,201109.65625,221775.1875
175,285801.75,270840.9375,306808.65625,275262.28125,682433.0625,203564.5,201448.859375,222149.796875
176,285754.8125,270727.28125,306774.84375,275232.15625,682398.1875,203540.71875,201425.703125,222149.171875
177,285668.625,270262.65625,306464.15625,274859.9375,682080.125,203350.8125,201071.921875,221775.625
178,285618.65625,269930.21875,306185.5625,274515.5625,681866.375,203207.234375,200743.984375,221398.875
179,285707.25,270298.21875,306392.28125,274751.78125,682093.125,203370.125,200951.046875,221596.375
180,285768.9375,270806.3125,306739.8125,275166.53125,682432.6875,203568.703125,201327.796875,222007.640625
181,285683.125,270633.40625,306664.59375,275093.40625,682350.25,203483.234375,201252.34375,221956.765625
182,285565.46875,270135.0625,306334.53125,274700.28125,682047.0625,203261.765625,200888.09375,221574.46875
183,285528.34375,269851.5625,306102.5,274405.3125,681918.75,203154.390625,200636.78125,221276.109375
184,285687.59375,270272.5625,306377.0,274706.34375,682178.9375,203381.9375,200921.8125,221553.0
185,285848.4375,270860.96875,306811.9375,275205.15625,682601.375,203683.765625,201387.078125,222054.40625
186,285859.0625,270796.40625,306832.96875,275230.375,682613.1875,203699.765625,201420.703125,222106.078125
187,285723.71875,270324.5,306517.1875,274868.1875,682249.125,203505.578125,201098.46875,221761.40625
188,285671.75,270077.46875,306317.53125,274634.65625,682127.5,203427.078125,200921.546875,221546.125
189,285735.15625,270413.03125,306508.78125,274867.28125,682295.875,203546.96875,201140.59375,221765.890625
190,285763.21875,270805.875,306768.84375,275183.59375,682531.1875,203641.921875,201404.25,222071.125
191,285675.59375,270540.6875,306605.5,274999.25,682273.1875,203467.578125,201177.15625,221867.8125
192,285594.15625,270133.625,306337.125,274684.53125,682024.6875,203322.46875,200875.3125,221540.9375
193,285550.0625,269880.875,306124.78125,274422.3125,681926.4375,203238.078125,200667.984375,221277.453125
194,285634.75,270247.71875,306328.96875,274663.0,682118.4375,203382.734375,200890.515625,221478.4375
195,285683.84375,270752.40625,306682.3125,275098.5,682483.1875,203588.734375,201314.390625,221918.5
196,285576.28125,270594.0625,306608.1875,275036.71875,682422.5,203503.171875,201275.328125,221887.125
197,285539.875,270222.15625,306383.34375,274760.0,682156.875,203394.53125,201041.34375,221627.578125
198,285517.71875,269984.3125,306180.375,274506.25,682035.375,203315.234375,200835.53125,221381.078125
199,285558.65625,270304.21875,306346.40625,274702.59375,682198.4375,203414.390625,201016.84375,221561.5
200,285619.90625,270792.8125,306690.625,275114.9375,682552.3125,203604.640625,201397.1875,221979.75
201,285633.5,270720.3125,306721.28125,275148.75,682584.375,203622.53125,201431.25,222041.875
202,285559.8125,270287.21875,306457.4375,274831.6875,682266.4375,203474.28125,201140.59375,221743.265625
203,285520.125,269997.71875,306227.84375,274550.34375,682075.875,203369.234375,200901.59375,221469.765625
204,285616.78125,270368.59375,306441.71875,274795.40625,682249.0625,203528.203125,201125.921875,221698.921875
205,285684.90625,270879.8125,306801.9375,275235.0,682634.0,203743.578125,201532.375,222150.25
206,285614.90625,270746.0625,306764.21875,275221.25,682619.8125,203685.015625,201516.453125,222165.71875
207,285488.375,270262.90625,306443.15625,274849.59375,682235.0,203470.078125,201174.734375,221814.703125
208,285466.75,270026.875,306252.25,274616.0625,682086.9375,203404.375,200990.65625,221597.0
209,285544.71875,270357.875,306428.9375,274824.1875,682248.5,203522.5625,201172.6875,221780.09375
210,285608.28125,270833.15625,306762.6875,275229.375,682592.0625,203690.390625,201538.984375,222189.578125
211,285525.3125,270630.5625,306650.5625,275114.9375,682448.5625,203559.21875,201408.265625,222083.453125
212,285459.875,270245.9375,306396.75,274814.1875,682144.8125,203416.703125,201126.109375,221782.25
213,285423.125,269975.1875,306177.4375,274550.5,682013.25,203320.59375,200908.390625,221518.84375
214,285489.375,270275.875,306352.5,274754.0,682170.0,203432.4375,201102.59375,221703.828125
215,285575.5625,270784.34375,306707.625,275171.28125,682516.0625,203637.28125,201488.5625,222119.484375
216,285466.03125,270621.34375,306621.59375,275096.15625,682437.0625,203551.453125,201419.53125,222072.015625
217,285298.5,270122.90625,306278.0,274704.65625,682108.75,203289.21875,201083.984375,221711.875
218,285273.1875,269850.65625,306063.15625,274433.5625,681998.5,203181.21875,200875.859375,221453.9375
219,285431.4375,270271.75,306331.65625,274726.75,682247.9375,203402.578125,201161.6875,221735.125
220,285514.5,270776.90625,306693.5625,275158.65625,682632.9375,203602.859375,201564.375,222178.40625
221,285412.46875,270597.5625,306608.0,275076.59375,682565.0,203500.65625,201491.0625,222133.34375
222,285451.625,270291.53125,306448.96875,274863.09375,682326.8125,203456.140625,201306.890625,221936.828125
223,285520.84375,270124.0625,306338.625,274712.4375,682158.3125,203467.84375,201204.421875,221793.328125
224,285578.15625,270443.25,306510.125,274919.21875,682290.875,203575.3125,201399.59375,221987.4375
225,285613.71875,270899.21875,306826.0625,275306.28125,682642.3125,203728.109375,201755.4375,222389.234375
226,285506.1875,270720.21875,306737.28125,275232.59375,682589.9375,203599.90625,201693.75,222359.28125
227,285386.5625,270272.84375,306435.28125,274878.28125,682293.3125,203404.28125,201398.4375,222047.515625
228,285349.90625,269949.4375,306175.90625,274561.25,682096.25,203246.125,201126.453125,221730.5625
229,285453.96875,270259.875,306334.53125,274733.625,682172.4375,203344.828125,201263.25,221859.40625
230,285490.875,270698.25,306624.46875,275088.84375,682442.0625,203476.96875,201576.09375,222200.40625
231,285426.15625,270570.28125,306583.34375,275061.28125,682415.5,203416.078125,201568.578125,222200.9375
232,285329.40625,270112.53125,306278.375,274698.03125,682092.0625,203213.671875,201246.984375,221846.078125
233,285314.5,269858.0,306076.5625,274430.96875,681974.75,203126.9375,201041.34375,221580.546875
234,285391.46875,270241.28125,306301.15625,274684.53125,682190.9375,203286.0,201304.109375,221828.203125
235,285465.5,270761.09375,306672.28125,275126.65625,682603.625,203455.78125,201739.25,222295.796875
236,285351.5,270555.1875,306566.71875,275022.65625,682522.25,203301.109375,201657.09375,222237.0625
237,285195.40625,270031.53125,306205.6875,274599.59375,682130.125,203028.421875,201274.15625,221836.15625
238,285187.53125,269790.40625,306018.28125,274353.46875,682012.625,202934.453125,201084.796875,221604.6875
239,285372.96875,270232.96875,306315.84375,274669.78125,682265.8125,203156.0,201397.8125,221914.484375
240,285467.03125,270745.53125,306685.71875,275108.9375,682656.3125,203344.296875,201804.078125,222364.1875
241,285471.5,270677.9375,306705.03125,275132.1875,682690.1875,203327.296875,201840.28125,222427.21875
242,285449.59375,270318.0625,306510.03125,274876.5,682433.75,203208.484375,201635.28125,222205.9375
243,285366.34375,269982.53125,306248.5,274552.46875,682141.5,203016.4375,201352.21875,221892.03125
244,285421.875,270308.6875,306428.84375,274764.03125,682311.0625,203120.328125,201552.484375,222105.71875
245,285464.0625,270776.46875,306759.28125,275173.15625,682686.875,203258.375,201920.84375,222531.390625
246,285416.84375,270628.84375,306694.1875,275109.21875,682623.5625,203150.640625,201860.3125,222498.484375
247,285300.0,270134.53125,306352.5,274712.4375,682242.0,202905.21875,201502.6875,222118.0625
248,285263.96875,269804.0625,306080.5,274386.71875,682003.5,202730.421875,201206.65625,221765.171875
249,285342.65625,270152.125,306268.34375,274598.4375,682158.1875,202841.640625,201419.984375,221955.15625
250,285380.1875,270588.34375,306560.0,274952.65625,682433.8125,202948.578125,201746.9375,222301.875
251,285303.3125,270459.53125,306515.03125,274925.65625,682406.5,202863.1875,201731.75,222296.328125
252,285214.8125,270024.1875,306235.46875,274590.75,682104.3125,202667.65625,201430.265625,221976.609375
253,285199.40625,269771.53125,306030.0,274329.5,681991.625,202534.171875,201218.546875,221726.0
254,285259.9375,270095.4375,306205.21875,274527.28125,682160.625,202600.515625,201409.4375,221913.671875
255,285330.40625,270578.875,306544.1875,274928.96875,682501.4375,202742.484375,201778.328125,222316.0
256,285322.625,270507.8125,306552.75,274944.71875,682522.25,202697.875,201802.828125,222360.171875
257,285260.3125,270086.6875,306276.5,274608.8125,682198.1875,202511.546875,201493.46875,222037.59375
258,285242.59375,269832.15625,306067.375,274348.28125,682030.875,202411.0625,201255.828125,221774.640625
259,285349.4375,270192.71875,306300.90625,274631.25,682242.0625,202540.703125,201497.234375,222030.265625
260,285408.375,270689.125,306669.96875,275076.5,682670.125,202682.59375,201901.078125,222500.1875
261,285342.46875,270537.5625,306618.90625,275024.5625,682644.5,202570.296875,201840.640625,222491.421875
262,285232.3125,270010.15625,306265.21875,274606.65625,682217.375,202280.703125,201424.28125,222067.1875
263,285165.4375,269628.46875,305943.0,274213.1875,681916.25,202038.5,201041.34375,221638.484375
264,285245.03125,269948.90625,306119.9375,274415.59375,682086.125,202133.359375,201200.484375,221789.3125
265,285315.28125,270442.625,306472.03125,274843.40625,682423.9375,202297.953125,201571.890625,222199.59375
266,285230.8125,270253.71875,306372.0625,274742.5625,682286.9375,202152.140625,201453.328125,222101.25
267,285176.34375,269874.875,306134.78125,274463.6875,682018.75,202002.46875,201188.78125,221819.96875
268,285109.3125,269620.0625,305903.65625,274200.9375,681908.5,201849.046875,200950.5,221550.765625
269,285180.8125,269962.59375,306085.53125,274413.28125,682114.5,201943.546875,201130.21875,221738.4375
270,285222.5625,270405.25,306395.40625,274789.0625,682424.4375,202058.796875,201455.03125,222108.84375
271,285174.46875,270267.375,306360.90625,274769.46875,682390.1875,201974.578125,201420.515625,222100.171875
272,285177.53125,269921.375,306163.125,274523.5,682145.5,201871.75,201192.796875,221857.703125
273,285204.6875,269708.5,306000.40625,274315.8125,682024.8125,201806.578125,201002.8125,221639.546875
274,285385.9375,270133.1875,306284.8125,274634.46875,682237.6875,202025.0,201255.46875,221918.046875
275,285392.53125,270566.625,306575.46875,275008.8125,682523.0,202126.296875,201533.078125,222270.578125
276,285295.53125,270420.0,306509.3125,274961.0625,682466.9375,202010.34375,201449.578125,222250.46875
277,285217.9375,270023.5625,306267.5625,274689.1875,682185.8125,201852.625,201170.984375,221986.8125
278,285175.28125,269755.71875,306049.3125,274433.46875,682026.0625,201707.875,200930.65625,221724.21875
279,285216.0625,270076.6875,306212.75,274633.21875,682185.1875,201788.703125,201092.484375,221905.53125
280,285269.875,270529.78125,306520.9375,275006.03125,682489.875,201932.203125,201405.140625,222271.125
281,285230.4375,270435.375,306506.71875,275006.84375,682483.375,201889.09375,201388.6875,222285.875
282,285129.25,269989.78125,306204.53125,274650.75,682128.6875,201697.140625,201036.875,221922.703125
283,285092.5,269714.21875,305980.46875,274381.96875,681972.3125,201570.1875,200793.15625,221641.34375
284,285212.03125,270125.40625,306233.65625,274675.5,682211.125,201751.6875,201060.03125,221913.84375
285,285269.78125,270644.59375,306579.03125,275096.0,682578.0625,201937.296875,201422.84375,222331.734375
286,285226.25,270568.25,306571.8125,275101.09375,682602.25,201917.796875,201421.765625,222368.21875
287,285135.6875,270131.40625,306297.875,274776.625,682282.625,201753.375,201130.9375,222062.53125
288,285098.21875,269862.09375,306076.75,274506.0,682054.1875,201643.671875,200910.625,221799.046875
289,285164.8125,270155.34375,306242.34375,274692.40625,682200.5,201769.75,201083.71875,221972.234375
290,285241.1875,270614.71875,306580.5625,275097.78125,682552.5625,201969.125,201438.9375,222367.59375
291,285175.0,270465.875,306521.90625,275050.375,682506.6875,201885.4375,201382.15625,222333.34375
292,285128.78125,270062.0,306288.28125,274763.125,682216.75,201780.46875,201123.15625,222056.28125
293,285110.0,269803.71875,306094.90625,274520.375,682065.6875,201728.890625,200930.484375,221826.765625
294,285176.1875,270103.84375,306264.34375,274706.15625,682239.0,201849.140625,201097.84375,222007.28125
295,285237.40625,270539.28125,306571.0,275064.0625,682545.9375,202023.125,201391.546875,222357.484375
296,285155.625,270289.03125,306430.71875,274904.65625,682361.0,201868.359375,201186.09375,222185.65625
297,285069.0625,269771.09375,306084.90625,274484.875,681996.4375,201648.953125,200744.15625,221731.109375
298,285034.09375,269450.1875,305826.6875,274156.0625,681822.1875,201540.859375,200430.421875,221371.328125
299,285105.0,269723.96875,305965.09375,274306.6875,681950.0625,201650.109375,200537.0,221461.453125
300,285151.3125,270181.46875,306274.625,274684.4375,682216.9375,201832.78125,200858.859375,221807.640625
301,285135.21875,270091.15625,306256.09375,274673.90625,682170.6875,201826.703125,200831.59375,221788.59375
302,285012.21875,269618.90625,305928.4375,274288.90625,681903.75,201637.6875,200477.359375,221402.171875
303,284945.5,269317.625,305658.78125,273962.5625,681738.8125,201493.75,200195.640625,221060.640625
304,285016.40625,269641.25,305822.21875,274147.75,681943.0625,201617.03125,200368.203125,221208.515625
305,285045.5625,270073.5625,306105.375,274497.40625,682208.5625,201779.84375,200685.234375,221542.1875
306,285029.8125,269986.375,306094.46875,274486.21875,682174.75,201766.796875,200688.453125,221542.984375
307,285085.6875,269696.53125,305945.15625,274272.5625,682020.75,201745.78125,200513.21875,221329.671875
308,285128.53125,269463.53125,305782.6875,274057.0625,681954.8125,201716.28125,200340.84375,221107.125
309,285230.1875,269798.96875,305969.5625,274269.78125,682120.625,201876.5,200518.046875,221274.40625
310,285246.8125,270238.3125,306254.59375,274628.75,682363.75,202019.375,200816.9375,221611.203125
311,285135.3125,270057.53125,306156.25,274535.6875,682259.875,201915.921875,200728.15625,221539.5
312,285046.96875,269600.40625,305862.4375,274189.21875,682011.6875,201734.703125,200399.140625,221183.9375
313,284992.1875,269267.46875,305590.75,273859.21875,681818.25,201591.28125,200095.515625,220826.484375
314,285098.40625,269601.75,305772.875,274055.90625,681969.5625,201747.21875,200259.921875,220970.609375
315,285148.0,270018.90625,306034.03125,274365.4375,682129.75,201874.625,200504.1875,221232.578125
316,285074.875,269878.1875,305967.84375,274307.6875,682032.25,201809.890625,200426.21875,221154.609375
317,284991.5625,269485.6875,305713.59375,274009.6875,681859.75,201680.15625,200154.421875,220844.09375
318,284958.1875,269228.65625,305497.125,273748.4375,681737.0625,201597.546875,199942.890625,220563.453125
319,285026.40625,269572.59375,305671.125,273949.4375,681941.125,201740.859375,200129.75,220725.625
320,285102.9375,270120.03125,306020.4375,274363.46875,682252.4375,201945.875,200502.21875,221120.546875
321,285043.75,269974.125,305975.625,274330.46875,682175.375,201886.328125,200459.3125,221089.96875
322,284941.65625,269515.65625,305688.375,273994.5,681935.1875,201722.984375,200163.546875,220754.328125
323,284994.9375,269313.40625,305544.34375,273786.875,681896.3125,201695.984375,200033.453125,220549.6875
324,285158.5625,269718.5,305810.15625,274082.8125,682122.6875,201910.5625,200314.203125,220814.140625
325,285180.1875,270154.09375,306099.65625,274438.5625,682374.75,202055.671875,200626.40625,221161.140625
326,285096.59375,270000.25,306026.15625,274367.5,682268.625,201978.953125,200546.921875,221102.484375
327,285038.03125,269588.6875,305774.21875,274070.03125,682014.625,201843.328125,200261.0,220799.03125
328,285006.125,269291.0625,305533.0625,273775.8125,681858.125,201745.609375,200000.203125,220487.546875
329,285062.90625,269569.21875,305670.65625,273933.15625,681993.125,201833.21875,200142.09375,220607.53125
330,285118.78125,270034.9375,305986.0,274310.28125,682251.1875,202005.0625,200483.625,220966.5
331,285053.96875,269889.375,305920.65625,274253.78125,682138.5,201936.046875,200410.484375,220899.0
332,284961.6875,269442.0625,305631.59375,273914.90625,681902.25,201746.046875,200098.453125,220553.96875
333,284929.15625,269149.53125,305384.5625,273602.96875,681721.625,201628.296875,199832.5625,220227.453125
334,285017.375,269495.71875,305570.8125,273811.125,681907.75,201788.78125,200022.90625,220399.75
335,285034.28125,269958.65625,305876.40625,274189.75,682182.8125,201940.875,200362.125,220769.984375
336,284899.625,269782.34375,305766.6875,274088.8125,682069.875,201831.25,200259.921875,220683.25
337,284839.5625,269373.9375,305517.96875,273789.03125,681895.8125,201691.421875,199991.34375,220387.3125
338,284885.4375,269182.4375,305377.6875,273598.15625,681838.125,201654.234375,199852.59375,220190.0
339,285097.3125,269666.84375,305703.75,273949.6875,682118.3125,201939.53125,200197.25,220511.0625
340,285223.84375,270238.5,306117.34375,274429.375,682506.4375,202206.5,200651.625,220991.703125
341,285162.21875,270131.3125,306088.46875,274411.84375,682457.5,202164.5625,200637.5,220996.53125
342,285061.46875,269698.03125,305807.90625,274084.53125,682123.25,202000.6875,200336.28125,220680.21875
343,285025.96875,269409.78125,305589.125,273830.25,681971.6875,201894.5625,200108.46875,220414.5
344,285084.71875,269726.90625,305750.0625,274018.09375,682117.4375,201995.3125,200287.109375,220586.15625
345,285135.40625,270220.1875,306089.8125,274425.6875,682450.8125,202180.296875,200675.84375,221004.578125
346,285083.8125,270100.1875,306058.34375,274406.46875,682403.8125,202130.953125,200660.203125,221007.625
347,284973.84375,269625.53125,305749.15625,274050.1875,682052.0,201932.203125,200335.828125,220655.984375
348,284920.21875,269309.5625,305492.84375,273739.5,681867.0625,201780.03125,200065.921875,220337.609375
349,285025.71875,269654.6875,305694.625,273968.46875,682036.625,201936.3125,200262.15625,220529.390625
350,285093.75,270151.34375,306041.25,274388.34375,682357.6875,202133.0,200639.453125,220940.828125
351,285028.46875,270020.625,305992.0,274344.25,682288.75,202064.15625,200594.046875,220914.90625
352,284912.5,269545.78125,305672.8125,273966.5,681960.6875,201865.140625,200234.453125,220540.734375
353,284929.875,269345.6875,305522.78125,273772.0625,681912.25,201836.890625,200086.65625,220350.75
354,285006.75,269681.9375,305700.0,273975.09375,682030.25,201957.859375,200274.5,220530.90625
355,285082.125,270185.125,306049.75,274396.8125,682357.9375,202186.5625,200654.65625,220943.34375
356,284984.84375,270020.09375,305989.6875,274357.46875,682312.6875,202078.90625,200631.140625,220939.9375
357,284939.25,269625.71875,305749.4375,274066.46875,682030.375,201935.0625,200373.390625,220657.859375
358,284972.25,269418.375,305602.53125,273869.15625,681950.5,201929.609375,200225.421875,220464.5625
359,285083.625,269790.125,305825.0,274116.34375,682123.75,202120.046875,200455.734375,220702.203125
360,285134.6875,270259.0625,306138.96875,274504.5625,682433.1875,202255.9375,200796.8125,221091.578125
361,285035.4375,270115.9375,306077.21875,274466.125,682388.4375,202165.640625,200760.15625,221085.9375
362,284953.71875,269671.5625,305807.46875,274150.3125,682089.0625,201986.375,200484.703125,220794.03125
363,284918.25,269350.25,305555.4375,273850.09375,681895.0625,201850.5625,200208.96875,220471.71875
364,284998.875,269658.25,305728.875,274053.0625,682063.3125,201985.390625,200387.953125,220643.640625
365,285054.65625,270144.625,306065.21875,274457.0,682380.8125,202170.109375,200754.890625,221048.578125
366,284980.71875,270010.96875,306013.90625,274421.84375,682318.5625,202098.765625,200706.515625,221027.109375
367,284856.53125,269535.0625,305696.25,274061.8125,681978.25,201892.046875,200347.640625,220663.140625
368,284749.96875,269180.375,305396.28125,273707.3125,681759.4375,201716.375,200026.3125,220307.296875
369,284834.8125,269525.75,305598.6875,273931.46875,681944.25,201866.03125,200231.40625,220514.71875
370,284933.53125,270083.21875,305992.28125,274397.28125,682332.4375,202090.796875,200653.140625,220981.875
371,285061.28125,270173.40625,306160.875,274576.53125,682512.0625,202231.796875,200833.109375,221196.625
372,284994.84375,269758.46875,305901.4375,274257.625,682193.0625,202085.890625,200543.53125,220900.875
373,284898.125,269410.59375,305614.53125,273920.09375,681940.0625,201911.546875,200237.046875,220566.125
374,285058.78125,269824.5625,305890.625,274232.84375,682175.4375,202132.015625,200513.84375,220856.96875
375,285160.71875,270355.0,306279.625,274686.15625,682573.375,202367.078125,200927.171875,221323.59375
376,285060.84375,270221.875,306223.84375,274636.34375,682539.6875,202299.125,200889.171875,221324.296875
377,284983.25,269830.8125,305987.78125,274360.6875,682258.9375,202170.109375,200648.484375,221081.390625
378,284937.375,269527.09375,305754.90625,274080.0625,682029.0,202049.5,200427.46875,220824.421875
379,285001.65625,269805.78125,305891.78125,274232.59375,682119.75,202136.578125,200573.65625,220963.28125
380,285045.375,270220.4375,306152.84375,274548.71875,682335.5625,202255.3125,200843.671875,221254.5625
381,284973.59375,270108.3125,306115.28125,274531.65625,682306.375,202199.078125,200840.625,221254.828125
382,284889.8125,269618.8125,305790.84375,274137.28125,681956.75,201976.265625,200469.9375,220851.25
383,284873.25,269352.46875,305582.25,273870.9375,681832.375,201916.546875,200248.484375,220571.3125
384,284949.53125,269707.96875,305782.53125,274106.96875,682040.875,202061.75,200479.78125,220783.03125
385,285014.34375,270227.34375,306139.53125,274535.125,682411.9375,202246.375,200896.234375,221225.421875
386,284992.4375,270163.03125,306143.46875,274550.15625,682426.3125,202234.390625,200921.625,221269.234375
387,284908.84375,269730.59375,305869.96875,274227.125,682102.9375,202077.03125,200633.015625,220968.015625
388,284846.0,269410.5,305610.84375,273904.375,681904.0,201932.46875,200368.28125,220656.25
389,284899.46875,269701.09375,305769.09375,274080.15625,682056.625,202042.875,200535.484375,220817.984375
390,284945.6875,270157.0625,306082.21875,274454.40625,682364.8125,202201.125,200866.734375,221194.9375
391,284928.59375,270067.03125,306082.5625,274471.03125,682370.6875,202155.984375,200869.859375,221230.875
392,284929.40625,269685.25,305879.34375,274218.09375,682104.4375,202030.09375,200628.640625,220987.140625
393,284922.875,269423.375,305673.96875,273942.09375,681937.5625,201959.46875,200394.9375,220722.140625
394,284986.90625,269719.75,305838.3125,274126.46875,682070.5,202072.921875,200553.265625,220885.9375
395,285040.1875,270185.75,306158.5625,274521.375,682383.4375,202226.34375,200882.5625,221269.671875
396,284993.53125,270068.71875,306112.875,274483.90625,682323.5,202154.1875,200821.140625,221243.390625
397,284913.125,269603.09375,305823.375,274145.59375,681997.5625,201960.890625,200481.296875,220898.09375
398,284872.625,269299.5625,305594.125,273864.6875,681859.5,201864.328125,200224.96875,220611.734375
399,284939.96875,269611.5,305755.15625,274048.59375,682028.1875,201984.671875,200383.671875,220772.296875
400,285004.25,270103.59375,306094.09375,274467.71875,682356.4375,202150.890625,200752.734375,221180.359375
401,284927.8125,269946.3125,306020.34375,274408.4375,682269.9375,202055.578125,200673.796875,221131.0
402,284817.21875,269441.71875,305677.46875,274009.15625,681927.0,201811.3125,200272.890625,220718.21875
403,284817.46875,269203.4375,305488.1875,273764.28125,681835.0625,201746.671875,200066.8125,220468.5
404,284885.15625,269521.90625,305658.15625,273959.25,681981.375,201864.78125,200245.359375,220635.6875
405,284904.03125,269989.0625,305955.6875,274332.28125,682257.5,202003.71875,200573.75,220999.484375
406,284880.40625,269931.65625,305959.0,274348.71875,682255.375,201979.484375,200586.0,221040.703125
407,284791.09375,269492.3125,305679.34375,274023.8125,681943.0,201803.71875,200273.078125,220719.28125
408,284784.125,269222.21875,305477.375,273767.40625,681833.5625,201724.140625,200072.171875,220473.421875
409,284903.5625,269549.4375,305665.40625,273969.375,681991.8125,201876.859375,200263.6875,220652.3125
410,284974.03125,270039.9375,306000.84375,274374.75,682307.9375,202059.515625,200634.0,221049.640625
411,285010.25,270006.40625,306050.90625,274431.875,682348.4375,202086.25,200702.578125,221128.859375
412,284974.5625,269591.65625,305800.65625,274119.21875,682043.0625,201949.625,200413.078125,220816.203125
413,284970.90625,269374.84375,305623.5625,273893.0,681938.4375,201906.0,200219.609375,220584.546875
414,285023.1875,269739.78125,305819.875,274130.21875,682131.0,202046.015625,200451.265625,220820.3125
415,285066.75,270292.78125,306208.0,274611.40625,682584.75,202253.609375,200917.34375,221337.09375
416,285007.65625,270162.34375,306162.9375,274567.40625,682557.375,202170.375,200883.546875,221338.96875
417,284928.96875,269675.875,305822.125,274150.25,682104.1875,201954.546875,200461.71875,220903.015625
418,284820.5,269264.9375,305475.40625,273744.96875,681784.1875,201706.265625,200076.46875,220463.40625
419,284881.75,269546.0625,305622.84375,273913.5,681912.5,201806.671875,200239.359375,220600.28125
420,284954.4375,270051.09375,305979.40625,274348.09375,682254.5,202000.859375,200660.109375,221028.28125
421,284864.875,269899.03125,305919.9375,274301.15625,682187.5,201915.484375,200640.171875,221007.625
422,284784.9375,269493.3125,305664.40625,274000.125,681927.25,201771.265625,200383.84375,220720.890625
423,284783.0625,269262.34375,305484.0,273771.875,681859.5,201697.40625,200220.140625,220507.921875
424,284802.8125,269552.5625,305610.15625,273928.96875,681983.6875,201776.265625,200382.5,220656.796875
425,284863.34375,270057.90625,305947.65625,274334.59375,682334.9375,201965.359375,200763.109375,221074.140625
426,284759.28125,269884.71875,305864.0625,274251.96875,682251.0625,201845.03125,200686.671875,221020.671875
427,284706.53125,269451.71875,305607.28125,273941.125,681950.5,201673.453125,200405.921875,220717.5
428,284780.1875,269265.5,305482.5625,273760.5,681890.9375,201672.5625,200274.59375,220539.84375
429,284915.71875,269645.03125,305716.28125,274012.09375,682074.5,201863.171875,200512.5,220779.640625
430,285022.9375,270181.71875,306103.40625,274466.03125,682464.625,202096.34375,200925.828125,221242.859375
431,285032.5,270121.65625,306125.40625,274501.59375,682489.0625,202085.703125,200945.140625,221299.265625
432,284951.21875,269680.34375,305843.9375,274169.8125,682140.75,201911.09375,200619.796875,220973.734375
433,284872.90625,269380.90625,305604.25,273890.5,681954.1875,201789.0625,200380.1875,220705.6875
434,284955.59375,269721.90625,305809.25,274130.375,682123.875,201934.078125,200602.0,220936.09375
435,285008.90625,270200.5,306133.875,274522.625,682455.9375,202075.875,200940.84375,221331.28125
436,284933.25,270002.90625,306032.15625,274417.65625,682316.375,201949.265625,200803.078125,221234.8125
437,284872.1875,269533.8125,305722.15625,274049.21875,681951.6875,201740.6875,200410.484375,220829.609375
438,284791.28125,269188.5,305436.96875,273710.625,681754.6875,201570.8125,200098.90625,220468.765625
439,284862.09375,269499.28125,305598.0625,273888.53125,681906.4375,201697.40625,200255.453125,220609.140625
440,284877.1875,269950.0625,305878.90625,274239.09375,682145.0625,201830.984375,200549.96875,220932.96875
441,284722.875,269764.90625,305768.84375,274146.9375,682044.625,201691.78125,200456.53125,220857.953125
442,284632.125,269333.96875,305489.96875,273818.53125,681821.3125,201514.390625,200153.984375,220536.984375
443,284620.96875,269064.9375,305285.78125,273559.71875,681720.0,201432.234375,199941.109375,220275.640625
444,284861.8125,269573.125,305642.59375,273943.25,682060.3125,201733.4375,200315.265625,220643.46875
445,285142.1875,270313.59375,306212.5625,274577.78125,682631.6875,202156.609375,200921.265625,221288.8125
446,285072.09375,270189.5,306154.90625,274527.53125,682560.25,202086.953125,200852.15625,221254.203125
447,284924.125,269686.875,305819.53125,274154.96875,682162.5625,201857.1875,200488.09375,220897.921875
448,284893.375,269403.4375,305605.9375,273898.375,681962.0625,201764.203125,200267.96875,220654.640625
449,284962.40625,269709.21875,305784.9375,274114.75,682117.625,201872.734375,200465.109375,220859.921875
450,284991.09375,270163.21875,306097.5,274507.15625,682442.875,202019.90625,200821.046875,221259.296875
451,284886.5,269991.75,305997.09375,274412.90625,682331.625,201909.9375,200726.1875,221181.78125
452,284785.03125,269507.78125,305672.0,274025.53125,681958.8125,201674.078125,200366.046875,220796.625
453,284761.3125,269207.65625,305436.5,273740.3125,681792.6875,201566.34375,200113.921875,220490.3125
454,284860.46875,269579.3125,305656.0,274001.28125,682007.8125,201766.96875,200361.140625,220728.765625
455,284920.84375,270068.1875,305985.375,274403.34375,682331.5625,201931.125,200725.375,221126.71875
456,284859.5,269944.90625,305930.21875,274349.0,682248.0625,201845.5625,200657.34375,221083.265625
457,284771.4375,269513.0625,305662.90625,274031.59375,681948.5625,201686.6875,200361.40625,220780.34375
458,284733.625,269239.125,305443.84375,273752.8125,681830.3125,201598.34375,200133.140625,220518.203125
459,284794.125,269560.09375,305606.75,273937.28125,682003.875,201730.21875,200312.234375,220693.796875
460,284872.0,270071.84375,305973.84375,274382.96875,682382.0625,201919.328125,200734.140625,221146.203125
461,284814.53125,269947.9375,305934.6875,274356.40625,682344.3125,201839.921875,200711.34375,221141.015625
462,284777.78125,269569.75,305706.34375,274070.9375,682053.875,201724.234375,200469.40625,220879.40625
463,284821.6875,269370.375,305558.09375,273855.65625,681921.875,201723.25,200313.921875,220677.53125
464,284907.875,269689.625,305743.4375,274068.875,682084.625,201865.140625,200517.234375,220879.40625
465,284968.21875,270191.9375,306096.34375,274502.0625,682460.5625,202057.8125,200911.890625,221323.40625
466,284907.0625,270081.5,306071.75,274496.78125,682463.9375,201996.65625,200902.859375,221356.578125
467,284795.21875,269605.40625,305760.34375,274136.8125,682101.3125,201782.4375,200559.703125,221014.5
468,284749.71875,269282.28125,305507.78125,273825.59375,681898.0,201666.921875,200288.453125,220704.53125
469,284824.28125,269549.90625,305635.625,273967.65625,681993.4375,201739.34375,200402.53125,220808.328125
470,284905.09375,270045.65625,305977.25,274376.875,682309.375,201927.453125,200767.765625,221206.546875
471,284845.0,269920.21875,305937.90625,274356.84375,682266.3125,201872.828125,200735.03125,221195.90625
472,284798.6875,269503.75,305677.375,274045.0,681949.625,201715.203125,200420.5,220873.328125
473,284753.09375,269231.59375,305440.625,273745.65625,681795.125,201617.484375,200159.34375,220576.5
474,284823.5625,269524.84375,305596.09375,273917.6875,681953.375,201728.609375,200320.90625,220730.734375
475,284878.4375,269985.9375,305909.65625,274300.96875,682240.0,201873.28125,200663.78125,221103.203125
476,284807.5625,269876.0625,305866.5625,274270.75,682186.6875,201803.625,200628.46875,221087.46875
477,284749.09375,269496.4375,305645.90625,274008.71875,681941.9375,201692.140625,200394.484375,220835.875
478,284740.84375,269231.15625,305443.65625,273737.09375,681827.375,201626.515625,200181.875,220577.9375
479,284852.34375,269600.40625,305662.4375,273981.96875,682032.5625,201798.171875,200409.59375,220795.734375
480,284897.5,270091.78125,305995.75,274379.84375,682365.6875,201968.765625,200778.84375,221202.703125
481,284839.375,269979.03125,305959.90625,274344.6875,682332.875,201906.796875,200756.671875,221202.265625
482,284779.375,269579.03125,305722.34375,274072.28125,682055.125,201766.4375,200497.296875,220934.046875
483,284741.375,269278.90625,305494.375,273789.75,681900.625,201641.171875,200273.25,220664.203125
484,284811.5625,269553.46875,305646.53125,273949.4375,682008.1875,201737.015625,200442.046875,220815.390625
485,284857.4375,270003.71875,305940.15625,274302.78125,682274.4375,201883.5625,200747.375,221148.609375
486,284845.5625,269968.75,305963.125,274333.625,682286.6875,201896.4375,200770.4375,221196.71875
487,284770.96875,269544.34375,305696.40625,274014.0625,681977.3125,201722.984375,200475.125,220888.984375
488,284731.8125,269233.46875,305447.6875,273715.09375,681789.125,201585.75,200198.140625,220570.6875
489,284749.53125,269487.9375,305567.75,273863.34375,681940.875,201628.21875,200348.4375,220701.140625
490,284763.75,269937.65625,305871.84375,274239.75,682267.0,201737.375,200721.09375,221086.75
491,284672.53125,269803.375,305806.75,274170.0,682211.1875,201659.59375,200680.9375,221057.515625
492,284675.125,269452.625,305611.21875,273918.5,681964.8125,201564.46875,200477.546875,220828.359375
493,284729.78125,269242.5,305469.40625,273717.78125,681879.6875,201547.296875,200345.484375,220643.375
494,284778.125,269533.71875,305606.84375,273863.96875,682001.3125,201636.796875,200503.5625,220783.296875
495,284816.5,270005.25,305918.59375,274243.5,682307.5,201770.453125,200850.8125,221163.8125
496,284755.875,269902.25,305892.5,274227.21875,682286.25,201723.15625,200839.015625,221182.0625
497,284746.9375,269532.09375,305682.125,273962.125,682026.75,201601.84375,200604.5,220939.5
498,284785.5625,269290.6875,305522.6875,273743.78125,681917.0,201557.9375,200428.8125,220731.53125
499,284864.875,269593.25,305692.84375,273940.125,682047.3125,201680.875,200602.625,220904.890625
500,284885.5,270061.84375,305997.90625,274314.375,682365.25,201818.5625,200948.546875,221294.171875
501,284826.6875,269962.40625,305984.84375,274323.0625,682379.3125,201748.90625,200961.234375,221339.59375
502,284730.125,269496.4375,305683.625,273978.65625,682040.4375,201514.21875,200637.9375,221007.4375
503,284696.0625,269176.875,305431.96875,273671.375,681850.4375,201374.921875,200358.1875,220687.640625
504,284783.5,269463.78125,305565.625,273825.5,681952.3125,201464.328125,200466.1875,220785.265625
505,284874.15625,270044.5,305916.8125,274235.1875,682236.0,201645.203125,200805.125,221156.21875
506,284813.4375,269941.3125,305916.375,274263.4375,682252.0,201602.1875,200835.34375,221203.609375
507,284668.15625,269375.0,305576.34375,273873.53125,681923.125,201372.78125,200484.78125,220828.8125
508,284629.625,269046.71875,305314.84375,273544.15625,681748.0,201215.0625,200199.75,220496.578125
509,284755.875,269423.46875,305540.59375,273793.78125,681967.25,201393.15625,200432.75,220718.921875
510,284846.53125,269969.375,305923.96875,274252.78125,682341.9375,201608.984375,200846.078125,221171.421875
511,284757.9375,269858.875,305862.4375,274199.78125,682279.6875,201497.140625,200789.21875,221138.15625
512,284695.0,269430.625,305601.90625,273882.03125,681969.25,201334.953125,200494.359375,220826.578125
513,284661.1875,269125.84375,305352.1875,273574.71875,681783.3125,201192.171875,200213.890625,220498.984375
514,284738.34375,269403.0,305497.5625,273754.625,681912.25,201297.578125,200344.859375,220624.6875
515,284753.5625,269885.78125,305790.75,274113.5,682175.8125,201430.53125,200640.09375,220971.5
516,284666.09375,269765.09375,305766.78125,274111.34375,682166.6875,201368.125,200630.15625,220997.875
517,284652.0625,269343.8125,305551.59375,273854.75,681917.625,201243.5,200371.5,220738.953125
518,284730.125,269163.84375,305426.6875,273679.40625,681867.8125,201225.171875,200204.859375,220540.921875
519,284749.15625,269444.9375,305533.875,273800.46875,681980.4375,201286.046875,200300.96875,220638.28125
520,284814.71875,269951.34375,305877.5625,274219.34375,682304.4375,201456.109375,200650.453125,221043.828125
521,284875.40625,269972.6875,305969.8125,274328.15625,682379.3125,201504.390625,200720.109375,221165.0625
522,284816.59375,269543.71875,305725.65625,274044.03125,682084.0,201379.21875,200431.59375,220883.34375
523,284755.53125,269184.40625,305431.40625,273666.53125,681828.375,201225.078125,200081.65625,220507.390625
524,284814.0,269504.65625,305604.0625,273883.71875,681996.875,201330.390625,200249.203125,220681.828125
525,284850.28125,269979.40625,305946.125,274324.40625,682367.4375,201491.859375,200641.0625,221124.75
526,284765.8125,269818.5625,305893.375,274285.0625,682335.5,201418.546875,200605.671875,221119.65625
527,284693.125,269356.25,305580.71875,273901.78125,681962.5625,201211.21875,200226.84375,220729.390625
528,284666.1875,269004.40625,305311.4375,273567.03125,681737.6875,201062.171875,199903.546875,220362.640625
529,284792.4375,269354.53125,305476.84375,273757.28125,681830.4375,201176.34375,200008.875,220458.65625
530,284780.8125,269841.4375,305789.75,274138.71875,682137.1875,201350.515625,200369.625,220849.28125
531,284673.875,269692.6875,305729.6875,274085.0625,682078.1875,201275.140625,200320.015625,220824.78125
532,284522.34375,269167.6875,305384.5625,273695.4375,681772.125,201043.484375,199946.203125,220438.015625
533,284468.0625,268865.3125,305136.1875,273390.28125,681627.375,200934.234375,199676.90625,220125.71875
534,284623.8125,269286.3125,305398.96875,273679.6875,681893.5625,201171.15625,199951.390625,220388.65625
535,284759.8125,269849.3125,305821.84375,274179.125,682315.0,201419.53125,200412.359375,220888.359375
536,284842.25,269874.4375,305895.78125,274252.34375,682348.375,201465.9375,200455.1875,220966.234375
537,284862.34375,269596.375,305758.28125,274076.375,682120.625,201455.03125,200288.453125,220790.28125
538,284890.96875,269445.03125,305630.34375,273888.09375,681980.25,201461.109375,200183.21875,220647.9375
539,284958.75,269739.78125,305829.1875,274135.40625,682179.125,201622.484375,200434.890625,220903.015625
540,284975.28125,270179.0625,306138.96875,274546.21875,682497.6875,201724.40625,200767.765625,221293.09375
541,284821.6875,269945.4375,305987.4375,274390.5625,682346.25,201573.3125,200618.890625,221176.515625
542,284687.125,269369.90625,305581.34375,273900.53125,681913.375,201282.296875,200146.109375,220688.96875
543,284735.3125,269131.46875,305393.34375,273650.53125,681801.75,201229.90625,199928.859375,220417.0
544,284876.84375,269485.6875,305572.59375,273846.53125,681909.125,201381.09375,200079.328125,220541.90625
545,284872.71875,269939.15625,305851.8125,274196.8125,682144.6875,201534.15625,200398.15625,220877.359375
546,284782.0625,269852.8125,305841.0,274224.90625,682129.6875,201497.40625,200412.359375,220911.15625
547,284625.34375,269284.53125,305524.3125,273902.65625,681855.1875,201297.859375,200092.921875,220583.203125
548,284714.03125,269123.0625,305365.78125,273689.78125,681762.0625,201244.390625,199860.1875,220321.515625
549,284730.9375,269451.1875,305499.53125,273857.53125,681904.9375,201384.21875,199981.15625,220441.140625
550,284714.375,269835.09375,305793.78125,274197.28125,682290.25,201514.484375,200386.96875,220878.25
551,284876.21875,269949.0,305967.0625,274355.0625,682438.25,201625.796875,200540.84375,221060.015625
552,284794.125,269534.0625,305698.375,274011.5625,682106.9375,201486.953125,200245.09375,220746.640625
553,284681.5,269126.90625,305390.28125,273634.8125,681860.5625,201326.109375,199936.453125,220390.796875
554,284761.5,269463.15625,305551.40625,273796.625,682007.125,201456.46875,200090.5,220540.46875
555,284860.84375,269989.5,305935.75,274259.125,682375.5625,201705.453125,200489.34375,220998.59375
556,284763.84375,269806.75,305857.34375,274200.75,682295.1875,201600.9375,200407.8125,220955.40625
557,284644.84375,269312.875,305526.53125,273806.90625,681930.625,201393.078125,200023.265625,220558.890625
558,284600.5625,269019.0,305285.9375,273510.8125,681794.25,201283.8125,199769.53125,220256.421875
559,284696.0625,269343.53125,305463.25,273719.84375,681968.75,201427.5,199961.3125,220431.3125
560,284779.375,269911.71875,305839.75,274185.5625,682345.0625,201660.484375,200395.296875,220888.796875
561,284708.21875,269810.96875,305794.3125,274144.96875,682306.875,201573.140625,200382.421875,220887.8125
562,284657.15625,269399.875,305553.375,273853.6875,681992.0625,201445.640625,200124.5625,220606.0
563,284659.84375,269118.9375,305355.59375,273609.25,681849.0,201380.109375,199928.234375,220356.5625
564,284696.0625,269347.75,305460.84375,273736.5625,681951.375,201456.46875,200045.796875,220456.875
565,284765.0,269867.71875,305812.5625,274165.25,682292.0625,201664.78125,200431.046875,220879.59375
566,284729.9375,269812.21875,305822.3125,274198.25,682307.5,201657.625,200456.0,220932.515625
567,284693.90625,269460.5625,305619.34375,273955.59375,682065.1875,201569.5625,200248.296875,220711.953125
568,284669.6875,269173.40625,305394.5,273683.8125,681895.8125,201481.9375,200028.8125,220445.4375
569,284720.5625,269447.53125,305530.75,273841.0625,682008.0,201594.859375,200189.203125,220589.203125
570,284778.9375,269913.15625,305833.3125,274206.21875,682278.0,201741.9375,200507.046875,220936.71875
571,284670.5,269748.90625,305734.40625,274115.46875,682142.125,201637.875,200387.6875,220844.453125
572,284570.09375,269283.375,305429.1875,273758.0,681838.9375,201425.4375,200044.640625,220490.84375
573,284536.03125,268970.28125,305199.125,273482.375,681725.8125,201312.25,199801.71875,220211.0
574,284623.1875,269296.5,305379.75,273689.96875,681925.3125,201486.59375,199980.4375,220388.5625
575,284812.5625,269963.84375,305882.5625,274270.21875,682435.5625,201846.0,200533.15625,220976.59375
576,284779.3125,269899.84375,305893.90625,274307.5,682454.875,201803.53125,200566.0625,221034.4375
577,284664.59375,269459.15625,305591.1875,273946.03125,682090.6875,201639.03125,200248.65625,220699.96875
578,284624.625,269150.59375,305353.625,273657.15625,681896.875,201533.984375,200025.6875,220424.515625
579,284699.71875,269434.375,305500.625,273822.46875,682020.125,201636.265625,200190.09375,220577.390625
580,284762.65625,269945.0625,305841.875,274232.9375,682344.1875,201818.46875,200553.265625,220980.796875
581,284649.03125,269775.65625,305753.28125,274157.9375,682251.375,201705.015625,200467.359375,220927.15625
582,284560.875,269306.4375,305451.625,273799.9375,681912.3125,201518.515625,200125.453125,220577.75
583,284619.4375,269133.0,305319.84375,273619.59375,681843.5,201517.703125,199974.71875,220390.984375
584,284795.75,269572.4375,305596.28125,273929.40625,682079.9375,201762.859375,200276.46875,220686.921875
585,284879.6875,270137.90625,305957.84375,274350.6875,682444.1875,201956.78125,200669.859375,221117.765625
586,284749.25,269944.90625,305875.9375,274295.96875,682387.6875,201864.515625,200619.796875,221088.171875
587,284641.6875,269406.125,305527.71875,273895.59375,681982.125,201617.84375,200218.890625,220671.359375
588,284623.625,269144.625,305297.40625,273603.25,681812.1875,201516.28125,199956.5625,220363.0
589,284729.40625,269522.8125,305498.65625,273829.1875,681983.0625,201670.953125,200164.34375,220560.234375
590,284777.96875,269988.625,305848.59375,274277.90625,682347.625,201874.53125,200571.0625,221003.15625
591,284785.28125,269944.34375,305890.4375,274332.4375,682405.25,201905.734375,200635.609375,221091.3125
592,284673.4375,269493.3125,305602.0,274007.53125,682074.3125,201711.359375,200325.546875,220764.609375
593,284558.71875,269100.875,305294.71875,273653.125,681858.75,201533.984375,200025.140625,220414.3125
594,284632.59375,269344.6875,305410.3125,273769.90625,681946.5,201621.328125,200131.0,220508.28125
595,284706.78125,269848.25,305748.0,274174.65625,682247.625,201803.8125,200484.96875,220897.921875
596,284672.09375,269808.71875,305776.09375,274235.25,682280.125,201794.0625,200527.078125,220970.078125
597,284594.3125,269422.21875,305512.59375,273918.125,681971.5,201629.46875,200227.296875,220663.234375
598,284560.78125,269119.40625,305283.8125,273639.71875,681831.6875,201524.5,199993.40625,220388.75
599,284715.09375,269498.5625,305515.09375,273885.59375,682053.125,201731.5625,200243.921875,220629.703125
600,284959.53125,270220.8125,306032.6875,274462.1875,682556.5,202096.34375,200791.984375,221211.5625
601,284824.625,270076.5,305975.375,274444.65625,682536.375,202015.796875,200775.8125,221223.359375
602,284717.875,269575.90625,305681.5,274128.59375,682194.125,201828.9375,200477.546875,220917.765625
603,284732.0,269326.8125,305477.375,273876.46875,681945.125,201754.640625,200247.671875,220652.59375
604,284753.28125,269598.96875,305587.4375,273998.25,682031.125,201829.46875,200377.59375,220778.109375
605,284817.21875,270097.0625,305914.84375,274384.5,682348.375,202012.21875,200728.15625,221169.265625
606,284756.5,269962.40625,305885.875,274392.09375,682318.125,201922.625,200702.140625,221176.953125
607,284663.34375,269483.5625,305574.90625,274026.59375,681961.75,201700.546875,200346.03125,220809.5
608,284608.34375,269140.59375,305333.25,273732.71875,681819.0625,201602.828125,200099.171875,220518.125
609,284686.9375,269445.46875,305499.90625,273926.71875,681971.25,201744.625,200270.203125,220687.015625
610,284669.96875,269839.46875,305744.6875,274232.75,682205.5625,201838.046875,200534.578125,220999.578125
611,284539.15625,269701.53125,305652.15625,274140.21875,682096.0,201719.9375,200416.65625,220920.453125
612,284455.375,269265.5625,305362.125,273788.6875,681813.5625,201483.90625,200074.140625,220580.25
613,284511.15625,269090.78125,305235.53125,273596.375,681787.8125,201500.71875,199930.46875,220399.65625
614,284629.28125,269455.5625,305475.84375,273866.1875,682011.3125,201738.1875,200197.703125,220660.359375
615,284800.84375,270064.0625,305924.40625,274381.53125,682453.5,202023.5625,200672.453125,221176.875
616,284863.0625,270110.90625,306034.375,274507.96875,682571.1875,202104.75,200794.40625,221323.765625
617,284769.46875,269664.5,305767.5,274191.46875,682257.4375,201942.921875,200523.5,221046.515625
618,284723.40625,269389.40625,305546.84375,273923.3125,682001.1875,201835.015625,200323.578125,220819.6875
619,284789.59375,269689.625,305718.3125,274138.15625,682165.625,201966.625,200533.0625,221040.34375
620,284792.8125,270036.625,305950.78125,274433.125,682391.5625,202034.484375,200778.125,221327.515625
621,284691.15625,269775.8125,305786.71875,274258.5,682148.0,201833.125,200563.734375,221135.109375
622,284626.21875,269325.65625,305495.53125,273902.84375,681843.6875,201654.9375,200219.34375,220766.765625
623,284589.03125,269056.71875,305259.65625,273612.625,681697.9375,201556.328125,199969.09375,220451.25
624,284672.0,269375.5625,305445.1875,273842.59375,681910.0625,201713.953125,200193.859375,220651.875
625,284698.21875,269864.34375,305766.4375,274240.53125,682238.125,201873.015625,200577.328125,221063.0625
626,284626.15625,269794.59375,305740.9375,274228.375,682218.875,201819.09375,200570.609375,221073.875
627,284552.375,269379.03125,305488.8125,273927.96875,681938.1875,201665.765625,200296.578125,220786.875
628,284508.75,269041.0625,305236.6875,273615.6875,681771.9375,201532.015625,200024.25,220476.015625
629,284600.3125,269357.40625,305412.09375,273814.78125,681961.0625,201654.59375,200201.8125,220653.390625
630,284755.78125,269953.375,305835.71875,274303.03125,682367.875,201929.0625,200635.796875,221133.59375
631,284779.125,269927.53125,305895.09375,274381.625,682421.0625,201960.0,200680.3125,221214.59375
632,284700.25,269498.21875,305614.0,274053.78125,682051.625,201772.609375,200332.34375,220865.28125
633,284630.0625,269223.46875,305369.28125,273739.9375,681872.4375,201654.40625,200077.53125,220580.96875
634,284754.0,269585.125,305575.53125,273966.25,682060.5,201815.078125,200276.203125,220785.09375
635,284765.625,270020.875,305891.78125,274360.78125,682395.5,201973.6875,200638.5625,221192.34375
636,284664.59375,269840.5625,305812.03125,274287.03125,682334.25,201873.71875,200577.40625,221156.578125
637,284608.875,269395.84375,305552.21875,273980.28125,682011.5,201722.796875,200282.09375,220852.59375
638,284558.5625,269071.375,305295.4375,273677.71875,681829.0625,201581.359375,200018.265625,220539.125
639,284626.78125,269367.40625,305446.09375,273852.875,681996.125,201702.59375,200177.578125,220684.234375
640,284689.625,269862.5625,305786.4375,274263.59375,682329.5625,201889.453125,200540.9375,221093.09375
641,284607.375,269699.28125,305690.59375,274162.5625,682185.1875,201777.609375,200399.046875,220991.96875
642,284499.375,269237.0625,305368.75,273785.5625,681834.75,201541.390625,200009.140625,220597.953125
643,284431.25,268901.15625,305110.96875,273483.96875,681676.0,201389.046875,199721.15625,220270.90625
644,284552.90625,269258.96875,305324.9375,273723.3125,681915.5625,201572.515625,199947.1875,220487.1875
645,284688.5625,269869.875,305752.46875,274222.21875,682356.9375,201861.03125,200428.375,220997.078125
646,284614.4375,269741.65625,305714.3125,274198.34375,682330.0625,201809.796875,200406.46875,220998.234375
647,284572.78125,269361.15625,305474.78125,273902.84375,682027.75,201666.203125,200131.0,220706.671875
648,284556.75,269069.5,305256.53125,273634.1875,681859.75,201570.90625,199887.015625,220425.40625
649,284666.65625,269404.875,305463.15625,273867.625,682056.75,201752.125,200110.265625,220644.625
650,284773.9375,269973.6875,305862.1875,274333.96875,682467.4375,201970.109375,200557.65625,221128.859375
651,284694.375,269862.46875,305820.25,274310.09375,682431.25,201919.328125,200523.046875,221125.375
652,284643.59375,269507.15625,305612.8125,274071.46875,682177.3125,201826.609375,200306.859375,220903.46875
653,284570.71875,269167.6875,305355.875,273775.4375,681951.375,201688.390625,200070.46875,220624.953125
654,284655.65625,269477.03125,305528.78125,273980.71875,682115.4375,201829.203125,200270.203125,220812.0
655,284691.40625,269921.28125,305773.03125,274278.09375,682304.1875,201911.90625,200505.890625,221075.484375
656,284664.0625,269819.28125,305722.53125,274223.375,682194.5625,201817.578125,200425.953125,221012.546875
657,284546.46875,269278.625,305388.40625,273847.0625,681862.875,201604.515625,200056.796875,220619.953125
658,284532.71875,268985.03125,305159.25,273564.1875,681708.8125,201502.234375,199792.5,220307.46875
659,284625.15625,269349.96875,305376.78125,273823.90625,681946.8125,201690.078125,200034.078125,220535.734375
660,284700.34375,269894.90625,305754.25,274285.15625,682326.5625,201915.296875,200453.5,220991.078125
661,284659.21875,269800.84375,305742.65625,274277.90625,682317.875,201887.046875,200451.265625,221016.390625
662,284582.78125,269382.25,305462.8125,273948.0,681972.125,201681.859375,200127.96875,220674.40625
663,284507.15625,269088.1875,305237.125,273666.8125,681841.625,201596.296875,199921.96875,220416.734375
664,284615.5,269385.28125,305421.03125,273862.625,682003.0625,201738.984375,200131.265625,220608.953125
665,284703.9375,269902.4375,305769.46875,274276.46875,682329.6875,201938.28125,200498.28125,221006.90625
666,284662.71875,269850.03125,305772.40625,274284.875,682321.25,201951.5,200491.21875,221026.84375
667,284553.46875,269405.15625,305512.5,273989.75,682032.125,201753.828125,200220.234375,220756.125
668,284492.40625,269111.34375,305275.21875,273701.6875,681855.4375,201586.90625,199957.203125,220472.15625
669,284526.90625,269356.78125,305356.21875,273776.25,681912.0,201654.671875,200013.34375,220526.875
670,284585.5625,269781.1875,305655.28125,274141.3125,682192.4375,201833.21875,200342.359375,220887.90625
671,284571.6875,269688.46875,305687.375,274206.75,682254.0625,201826.78125,200406.203125,220981.0625
672,284575.09375,269369.03125,305529.59375,274002.28125,682036.0,201772.6875,200223.453125,220795.640625
673,284650.1875,269268.78125,305454.84375,273880.3125,681947.4375,201796.5625,200131.09375,220680.578125
674,284671.5625,269483.1875,305518.3125,273940.65625,681945.0625,201834.65625,200173.65625,220725.1875
675,284682.375,269794.40625,305709.21875,274179.5625,682088.1875,201902.15625,200357.375,220946.921875
676,284653.40625,269725.5625,305717.4375,274204.15625,682081.1875,201901.171875,200361.046875,220981.34375
677,284605.3125,269359.53125,305485.6875,273922.6875,681845.25,201759.640625,200076.375,220688.96875
678,284516.0,269059.40625,305247.5,273649.03125,681710.625,201636.796875,199825.140625,220397.953125
679,284570.0,269336.9375,305410.3125,273841.78125,681901.5,201718.328125,200056.703125,220597.6875
680,284630.96875,269778.6875,305706.0625,274195.84375,682198.625,201896.515625,200413.4375,220965.78125
681,284546.84375,269640.71875,305635.34375,274136.375,682122.1875,201813.640625,200349.953125,220926.078125
682,284494.4375,269251.4375,305396.90625,273851.625,681887.1875,201666.203125,200072.0,220642.484375
683,284508.40625,269088.375,305267.4375,273679.0625,681854.5625,201638.140625,199919.46875,220463.9375
684,284600.5625,269406.40625,305449.84375,273883.90625,681988.6875,201800.765625,200112.5,220650.796875
685,284670.59375,269845.84375,305758.1875,274252.0625,682309.625,201974.578125,200473.34375,221034.09375
686,284629.0,269776.71875,305750.34375,274258.40625,682314.375,201952.3125,200487.5625,221068.953125
687,284554.96875,269379.3125,305498.125,273968.125,682013.5625,201801.65625,200204.578125,220769.703125
688,284515.625,269130.03125,305288.0,273720.46875,681869.3125,201679.171875,199973.375,220501.125
689,284555.25,269378.59375,305411.84375,273856.4375,681970.6875,201769.03125,200109.453125,220633.28125
690,284610.59375,269772.15625,305679.625,274179.03125,682210.6875,201904.65625,200389.5625,220948.25
691,284535.84375,269626.5,305609.4375,274119.40625,682121.25,201809.625,200297.296875,220887.109375
692,284501.875,269249.65625,305397.53125,273854.125,681905.5625,201704.921875,200038.109375,220626.390625
693,284485.5,269072.09375,305250.375,273664.9375,681852.0,201643.234375,199874.21875,220435.5
694,284514.375,269361.25,305373.21875,273802.28125,681957.0,201725.671875,200019.328125,220570.875
695,284547.46875,269725.5625,305614.875,274096.6875,682176.1875,201854.859375,200287.734375,220863.234375
696,284479.6875,269555.96875,305551.03125,274045.71875,682094.0625,201779.3125,200218.890625,220813.875
697,284485.5,269195.75,305362.03125,273800.21875,681879.6875,201685.796875,199984.90625,220571.3125
698,284450.1875,269000.9375,305204.40625,273603.34375,681820.3125,201598.625,199819.78125,220379.265625
699,284543.09375,269365.28125,305413.8125,273834.1875,681995.1875,201785.84375,200055.1875,220612.984375
700,284707.40625,269903.40625,305811.5,274295.34375,682402.75,202046.453125,200497.03125,221087.90625
701,284691.9375,269800.21875,305787.0625,274281.65625,682358.0,202006.40625,200463.234375,221082.09375
702,284608.8125,269377.875,305516.96875,273960.15625,682020.125,201850.921875,200157.109375,220767.65625
703,284570.1875,269205.125,305377.59375,273798.5,681921.875,201785.65625,200055.1875,220621.734375
704,284636.96875,269510.03125,305548.625,274008.875,682055.75,201899.109375,200269.765625,220827.734375
705,284650.8125,269885.09375,305776.0,274283.09375,682317.25,202007.125,200554.4375,221137.359375
706,284587.875,269705.90625,305698.75,274208.1875,682225.25,201914.40625,200464.140625,221081.203125
707,284528.34375,269286.78125,305446.09375,273917.59375,681948.4375,201770.1875,200159.078125,220774.71875
708,284505.90625,269078.4375,305260.46875,273681.375,681857.8125,201669.15625,199952.71875,220532.421875
709,284587.25,269388.6875,305424.71875,273859.40625,681993.5,201803.09375,200130.90625,220688.34375
710,284623.1875,269799.78125,305698.375,274196.1875,682258.625,201966.890625,200455.1875,221024.875
711,284490.875,269547.65625,305532.09375,274024.34375,682055.625,201778.6875,200266.1875,220846.15625
712,284345.3125,269026.9375,305190.5625,273647.5,681772.5625,201505.546875,199874.5,220433.1875
713,284228.375,268774.28125,304952.28125,273367.3125,681665.625,201362.21875,199635.59375,220152.71875
714,284223.8125,269035.8125,305058.59375,273488.28125,681811.8125,201442.0625,199769.796875,220279.578125
715,284493.375,269696.34375,305574.8125,274072.53125,682328.4375,201810.875,200322.0625,220861.703125
716,284535.84375,269664.5,305648.125,274158.65625,682405.5625,201859.6875,200400.828125,220973.015625
717,284382.78125,269135.5,305293.5625,273733.25,681984.1875,201607.640625,200016.296875,220581.0625
718,284528.25,269129.59375,305306.59375,273686.84375,681954.6875,201746.5,200040.609375,220562.640625
719,284805.84375,269663.625,305708.03125,274126.53125,682350.9375,202106.8125,200510.265625,221028.28125
720,284836.34375,270090.4375,305985.375,274457.96875,682663.5,202214.28125,200826.953125,221392.25
721,284721.53125,269922.625,305894.09375,274376.25,682572.0625,202070.59375,200723.5,221335.203125
722,284572.0625,269359.28125,305532.90625,273969.28125,682139.125,201814.171875,200307.21875,220923.84375
723,284504.46875,269077.8125,305297.5625,273672.90625,681948.1875,201707.609375,200081.46875,220660.984375
724,284560.78125,269295.4375,305377.0625,273751.125,681955.6875,201739.796875,200163.8125,220721.15625
725,284614.0625,269706.8125,305600.5625,274011.21875,682061.5625,201827.140625,200352.375,220914.1875
726,284555.6875,269552.9375,305543.90625,273962.125,681945.9375,201736.84375,200268.875,220829.078125
727,284423.1875,269061.1875,305240.71875,273615.21875,681733.875,201524.765625,199945.65625,220472.875
728,284404.59375,268852.6875,305081.9375,273416.5625,681714.625,201482.5625,199812.09375,220286.015625
729,284495.53125,269223.28125,305288.0,273641.78125,681927.5,201658.703125,200055.546875,220516.78125
730,284508.5625,269711.8125,305591.375,274000.21875,682250.0,201809.703125,200408.25,220902.65625
731,284386.0,269530.65625,305496.15625,273910.09375,682166.5,201668.09375,200318.578125,220839.53125
732,284283.1875,269027.21875,305188.84375,273545.84375,681862.4375,201448.328125,199981.875,220483.515625
733,284317.40625,268832.59375,305040.625,273339.6875,681819.375,201389.9375,199834.796875,220283.421875
734,284577.875,269347.375,305399.5,273716.625,682153.0,201710.109375,200221.125,220654.28125
735,284730.21875,269934.15625,305831.875,274215.3125,682587.5,202001.046875,200680.3125,221160.234375
736,284624.71875,269740.96875,305741.84375,274140.84375,682494.0,201879.09375,200571.421875,221102.125
737,284552.28125,269301.34375,305470.21875,273814.34375,682140.25,201720.921875,200248.125,220787.234375
738,284513.03125,269067.90625,305279.6875,273580.90625,681938.625,201651.015625,200063.234375,220575.78125
739,284564.09375,269336.125,305417.375,273746.21875,682091.5,201735.953125,200230.875,220743.96875
740,284651.09375,269854.6875,305782.53125,274192.25,682475.9375,201951.0625,200630.34375,221188.3125
741,284539.875,269583.34375,305602.28125,274000.3125,682233.625,201739.34375,200396.71875,220984.90625
742,284438.125,269001.125,305210.3125,273547.71875,681802.5625,201432.328125,199909.0,220466.0
743,284424.09375,268787.96875,305037.84375,273350.59375,681716.4375,201383.234375,199738.234375,220225.21875
744,284466.5625,269120.75,305215.15625,273561.9375,681930.75,201535.5,199982.40625,220434.34375
745,284546.21875,269653.59375,305575.4375,273989.3125,682288.75,201736.84375,200393.140625,220870.828125
746,284509.90625,269577.96875,305562.5625,273990.375,682274.875,201695.796875,200396.1875,220889.875
747,284409.25,269103.46875,305255.1875,273633.90625,681940.6875,201482.125,200064.484375,220534.484375
748,284371.34375,268859.65625,305039.71875,273371.3125,681810.75,201385.46875,199858.671875,220269.84375
749,284469.15625,269225.34375,305245.1875,273587.6875,681994.0625,201572.515625,200116.78125,220492.546875
750,284548.375,269744.8125,305619.53125,274038.125,682387.875,201763.84375,200553.546875,220949.953125
751,284517.875,269637.40625,305601.75,274035.0,682362.875,201703.40625,200535.03125,220958.890625
752,284441.25,269161.34375,305304.375,273689.4375,682002.625,201514.3125,200185.71875,220606.625
753,284406.375,268879.78125,305072.53125,273409.5,681836.0625,201427.140625,199925.09375,220310.78125
754,284544.5,269288.71875,305328.5,273696.125,682100.6875,201629.28125,200192.0625,220585.890625
755,284584.21875,269771.53125,305661.375,274088.625,682459.5625,201776.265625,200563.640625,221013.078125
756,284535.3125,269628.21875,305621.125,274069.25,682405.3125,201707.78125,200503.65625,220991.4375
757,284449.5625,269172.5,305319.5625,273727.0,682042.125,201507.609375,200143.4375,220621.46875
758,284383.6875,268862.25,305064.5,273387.6875,681886.5,201380.375,199897.734375,220330.90625
759,284472.90625,269139.875,305225.34375,273575.25,681999.3125,201507.0625,200056.53125,220474.9375
760,284454.03125,269558.28125,305468.625,273881.46875,682204.25,201591.203125,200303.46875,220765.59375
761,284298.375,269326.8125,305307.6875,273704.8125,682013.5625,201393.34375,200107.3125,220609.5
762,284223.0,268870.3125,305025.59375,273370.625,681766.625,201205.765625,199762.203125,220269.5625
763,284297.125,268728.6875,304935.9375,273245.25,681782.0,201258.328125,199666.890625,220133.125
764,284539.78125,269216.9375,305277.71875,273601.625,682093.5625,201576.890625,200041.234375,220492.28125
765,284681.03125,269843.9375,305719.84375,274103.21875,682551.0625,201851.1875,200538.515625,221018.984375
766,284577.59375,269713.875,305646.09375,274051.25,682467.5625,201694.375,200465.109375,220968.546875
767,284433.46875,269144.875,305286.5625,273661.53125,682052.875,201452.265625,200064.03125,220555.484375
768,284355.15625,268854.21875,305038.375,273330.46875,681877.625,201355.34375,199832.921875,220275.828125
769,284466.46875,269233.5625,305270.125,273577.40625,682095.8125,201536.390625,200122.59375,220557.09375
770,284568.21875,269768.03125,305656.8125,274048.75,682493.625,201759.546875,200539.328125,221021.03125
771,284482.1875,269584.03125,305559.1875,273959.8125,682367.875,201634.734375,200417.8125,220932.25
772,284373.9375,268988.0625,305151.9375,273473.53125,681892.1875,201342.46875,199910.53125,220402.96875
773,284357.46875,268745.40625,304965.78125,273246.78125,681784.5,201280.859375,199732.25,220163.890625
774,284392.78125,269044.65625,305104.8125,273409.9375,681918.75,201382.796875,199908.296875,220319.453125
775,284468.96875,269601.65625,305481.5625,273854.75,682288.0,201600.140625,200315.359375,220768.546875
776,284437.5,269550.25,305466.71875,273844.90625,682227.5625,201556.328125,200258.3125,220751.203125
777,284255.90625,269033.03125,305102.65625,273437.5625,681854.9375,201312.0625,199853.578125,220340.640625
778,284206.5625,268744.25,304870.5625,273147.625,681740.3125,201175.28125,199622.640625,220073.3125
779,284305.96875,269030.53125,305079.5,273395.65625,681949.625,201349.078125,199876.375,220323.296875
780,284441.6875,269616.84375,305501.4375,273881.21875,682370.25,201609.609375,200327.4375,220815.84375
781,284458.5,269574.03125,305554.25,273945.6875,682417.1875,201641.171875,200379.640625,220899.0
782,284478.34375,269182.34375,305368.90625,273716.875,682143.375,201556.234375,200157.015625,220671.984375
783,284478.53125,268969.625,305192.34375,273494.53125,681940.5,201517.4375,199982.671875,220466.265625
784,284493.8125,269271.3125,305311.625,273619.875,682056.875,201623.203125,200138.328125,220618.609375
785,284579.46875,269858.53125,305726.09375,274128.875,682529.5,201868.984375,200614.78125,221145.84375
786,284528.25,269736.3125,305694.71875,274121.90625,682531.375,201783.421875,200595.109375,221164.984375
787,284434.375,269230.34375,305359.1875,273731.90625,682118.875,201546.40625,200190.09375,220754.515625
788,284356.59375,268819.15625,305014.25,273323.65625,681797.0,201334.0625,199794.65625,220311.234375
789,284347.90625,268999.59375,305037.9375,273331.8125,681827.0625,201342.46875,199818.171875,220302.921875
790,284468.96875,269508.125,305435.09375,273804.9375,682185.1875,201588.6875,200244.109375,220752.90625
791,284447.78125,269443.0625,305466.65625,273884.78125,682204.6875,201565.453125,200285.140625,220820.9375
792,284319.9375,268983.6875,305144.5,273515.71875,681859.9375,201350.875,199926.53125,220441.765625
793,284296.40625,268760.78125,304977.125,273306.3125,681800.75,201330.578125,199775.875,220250.609375
794,284293.375,269000.84375,305063.875,273398.59375,681918.9375,201388.6875,199891.578125,220352.71875
795,284303.28125,269454.84375,305352.65625,273784.375,682196.625,201496.421875,200199.671875,220696.84375
796,284304.0,269405.84375,305385.71875,273841.15625,682223.3125,201486.59375,200222.734375,220753.890625
797,284343.78125,269079.25,305209.78125,273592.53125,681965.875,201428.390625,199987.953125,220504.265625
798,284247.25,268751.75,304949.59375,273262.0625,681794.6875,201334.6875,199727.328125,220212.796875
799,284348.96875,269049.9375,305130.65625,273446.6875,681982.125,201507.953125,199932.4375,220419.328125
800,284420.6875,269569.125,305495.6875,273888.46875,682341.8125,201676.40625,200314.828125,220854.828125
801,284459.3125,269614.25,305573.9375,273971.34375,682427.125,201710.015625,200386.796875,220968.375
802,284483.90625,269210.59375,305392.53125,273757.75,682188.9375,201628.125,200172.9375,220754.6875
803,284368.125,268845.46875,305083.8125,273396.53125,681912.5,201451.0,199848.390625,220395.90625
804,284396.28125,269110.90625,305182.34375,273502.3125,681988.4375,201517.34375,199954.0625,220498.453125
805,284457.625,269595.03125,305505.96875,273900.34375,682302.9375,201670.765625,200308.203125,220889.875
806,284387.59375,269500.53125,305488.5625,273908.65625,682295.6875,201638.140625,200305.96875,220913.03125
807,284316.71875,269047.59375,305196.8125,273565.0625,681946.375,201453.78125,199963.09375,220558.359375
808,284254.65625,268658.3125,304880.84375,273189.375,681690.5,201254.484375,199621.03125,220157.984375
809,284330.375,268978.125,305037.9375,273364.8125,681849.1875,201394.953125,199793.484375,220306.21875
810,284385.625,269557.21875,305384.65625,273779.90625,682178.125,201589.765625,200173.296875,220715.0
811,284224.4375,269417.9375,305332.625,273770.09375,682173.0625,201507.515625,200167.84375,220730.453125
812,284045.34375,268801.09375,304909.71875,273298.46875,681785.375,201149.34375,199697.46875,220249.09375
813,284082.28125,268711.0,304742.8125,273051.0625,681678.8125,201085.59375,199486.109375,219993.390625
814,284271.1875,269100.34375,305077.46875,273431.40625,682025.25,201435.984375,199898.015625,220389.375
815,284467.625,269682.46875,305564.71875,274000.65625,682543.0625,201785.03125,200439.375,220970.15625
816,284350.5,269518.96875,305465.03125,273919.21875,682434.4375,201624.015625,200327.78125,220893.265625
817,284178.65625,268964.09375,305065.125,273468.78125,681954.375,201318.5,199882.984375,220440.0625
818,284311.875,268860.21875,305009.5,273359.53125,681870.375,201387.890625,199828.890625,220336.796875
819,284522.78125,269261.375,305308.65625,273672.625,682106.875,201683.90625,200163.1875,220656.078125
820,284542.90625,269777.4375,305660.9375,274110.375,682505.5625,201883.921875,200568.5625,221107.484375
821,284471.03125,269656.8125,305623.1875,274097.9375,682475.125,201806.046875,200523.234375,221111.875
822,284323.21875,269114.65625,305265.75,273705.96875,682068.1875,201527.0,200122.234375,220713.921875
823,284247.9375,268726.90625,304942.625,273305.4375,681799.5625,201347.203125,199766.671875,220310.875
824,284289.0,268975.375,305030.34375,273384.03125,681892.125,201404.6875,199838.546875,220367.640625
825,284355.6875,269503.84375,305396.5625,273826.125,682239.5625,201604.34375,200237.578125,220800.640625
826,284306.875,269400.125,305387.78125,273853.5,682226.3125,201533.34375,200242.84375,220828.09375
827,284233.65625,268989.65625,305115.4375,273546.28125,681912.875,201365.890625,199942.796875,220498.53125
828,284219.96875,268796.625,304912.59375,273287.09375,681804.5,201285.78125,199746.734375,220242.921875
829,284250.71875,269019.0,304988.75,273369.8125,681891.75,201323.328125,199833.015625,220305.59375
830,284251.0,269423.5625,305302.59375,273773.84375,682251.375,201487.484375,200222.828125,220729.03125
831,284221.125,269355.875,305317.5,273806.125,682272.0,201464.234375,200244.015625,220779.90625
832,284254.125,269039.125,305160.5,273598.40625,682020.25,201423.65625,200041.421875,220569.796875
833,284342.0,268880.15625,305051.625,273444.46875,681898.9375,201442.78125,199915.4375,220410.390625
834,284278.4375,269011.46875,305054.75,273472.8125,681930.9375,201414.53125,199941.90625,220428.796875
835,284244.65625,269444.3125,305300.96875,273770.09375,682190.75,201520.75,200226.125,220746.109375
836,284259.03125,269418.8125,305352.46875,273836.96875,682243.3125,201517.171875,200275.75,220826.84375
837,284349.25,269182.6875,305229.90625,273656.1875,682023.375,201499.90625,200085.140625,220630.140625
838,284285.875,268880.78125,304985.09375,273363.46875,681841.9375,201389.234375,199828.984375,220340.46875
839,284322.96875,269079.0,305096.78125,273500.4375,681980.4375,201439.203125,199968.1875,220468.671875
840,284356.3125,269527.0,305407.625,273887.84375,682290.625,201581.359375,200306.78125,220846.421875
841,284298.46875,269405.5,305369.625,273860.8125,682227.5,201515.65625,200241.59375,220819.15625
842,284246.25,268983.78125,305084.34375,273513.65625,681872.5625,201329.765625,199870.03125,220444.453125
843,284188.59375,268678.8125,304822.1875,273197.78125,681695.8125,201195.125,199575.703125,220114.53125
844,284232.84375,268993.78125,304983.75,273393.6875,681895.5,201333.4375,199768.71875,220292.71875
845,284297.125,269472.28125,305340.65625,273836.59375,682267.875,201537.28125,200180.171875,220737.875
846,284272.0,269433.40625,305347.65625,273853.40625,682272.625,201505.359375,200190.375,220772.484375
847,284243.46875,269076.65625,305103.65625,273547.28125,681951.5625,201370.984375,199888.359375,220452.859375
848,284131.71875,268705.8125,304835.59375,273245.4375,681798.5,201250.828125,199636.046875,220153.609375
849,284185.0,268900.0,304937.1875,273359.4375,681921.625,201304.015625,199746.46875,220258.84375
850,284289.4375,269453.78125,305291.40625,273767.5625,682211.75,201515.5625,200082.453125,220639.4375
851,284303.5625,269439.65625,305335.65625,273837.40625,682221.875,201520.296875,200106.953125,220694.875
852,284209.96875,268995.9375,305071.46875,273532.0,681912.625,201369.46875,199833.453125,220405.46875
853,284231.59375,268775.625,304920.0,273330.90625,681839.5625,201321.1875,199702.65625,220225.84375
854,284315.375,269082.21875,305096.21875,273540.75,681996.4375,201502.953125,199903.546875,220416.640625
855,284384.9375,269604.15625,305459.59375,273986.28125,682388.0625,201713.5,200316.4375,220877.265625
856,284317.5,269517.25,305449.03125,274003.625,682408.0,201664.59375,200325.640625,220925.640625
857,284188.84375,268988.5,305086.84375,273584.28125,681987.5,201413.015625,199911.6875,220504.0
858,284170.09375,268720.5625,304867.78125,273308.90625,681845.25,201314.21875,199677.703125,220230.046875
859,284248.3125,269002.28125,305016.21875,273469.9375,681997.8125,201448.328125,199837.03125,220376.953125
860,284354.4375,269557.5,305402.53125,273921.0,682366.8125,201680.0625,200246.6875,220826.390625
861,284253.21875,269423.8125,305350.6875,273883.8125,682300.5625,201610.328125,200193.859375,220797.15625
862,284147.5625,268893.8125,304994.84375,273462.78125,681886.125,201345.5,199769.625,220357.640625
863,284090.78125,268642.5,304742.71875,273146.75,681698.125,201230.796875,199478.875,220020.296875
864,284087.46875,268864.78125,304856.1875,273299.25,681840.375,201334.59375,199631.578125,220163.890625
865,284124.03125,269344.53125,305192.25,273716.4375,682189.125,201511.53125,200003.328125,220581.859375
866,284185.0,269374.21875,305294.8125,273833.90625,682298.125,201564.640625,200107.9375,220724.109375
867,284207.28125,269053.6875,305124.21875,273609.875,682048.875,201519.84375,199902.03125,220509.984375
868,284113.65625,268711.15625,304854.46875,273286.84375,681829.625,201376.703125,199650.34375,220210.65625
869,284221.75,269004.5,305028.09375,273467.4375,681998.625,201545.328125,199833.546875,220381.859375
870,284546.40625,269828.84375,305650.1875,274164.625,682613.25,202021.15625,200474.328125,221070.46875
871,284416.40625,269711.71875,305598.53125,274147.90625,682602.25,201923.34375,200441.875,221084.328125
872,284211.90625,269106.875,305200.75,273702.9375,682156.125,201619.8125,200019.421875,220670.734375
873,284198.78125,268832.65625,305011.03125,273460.1875,681933.8125,201567.6875,199831.21875,220460.546875
874,284254.75,269086.6875,305151.46875,273615.9375,682046.8125,201693.484375,199996.71875,220625.9375
875,284307.78125,269473.90625,305393.96875,273895.0625,682231.6875,201773.5,200206.1875,220878.515625
876,284214.78125,269263.0625,305248.3125,273723.0625,682010.125,201598.53125,199984.203125,220682.625
877,284101.6875,268739.40625,304892.84375,273296.9375,681689.25,201363.65625,199547.078125,220220.75
878,284055.625,268477.625,304672.53125,273024.6875,681559.0,201282.203125,199318.921875,219933.671875
879,284112.78125,268771.15625,304843.46875,273232.125,681774.5625,201444.21875,199531.625,220123.484375
880,284065.03125,269198.875,305092.375,273556.75,682023.1875,201529.234375,199819.6875,220444.171875
881,283913.9375,269032.6875,304986.96875,273464.40625,681937.0,201378.765625,199723.84375,220377.484375
882,283891.3125,268652.78125,304772.65625,273199.40625,681736.8125,201273.171875,199469.65625,220111.3125
883,284120.71875,268658.0625,304816.84375,273185.96875,681824.25,201443.765625,199519.375,220109.796875
884,284433.03125,269191.0,305199.84375,273572.21875,682116.6875,201834.734375,199926.703125,220494.609375
885,284526.09375,269775.03125,305589.84375,274034.1875,682513.5625,202070.421875,200348.984375,220954.609375
886,284407.90625,269586.71875,305520.03125,273999.84375,682471.75,201935.328125,200296.578125,220942.53125
887,284267.53125,269063.6875,305189.3125,273621.5,682078.625,201717.0,199924.5625,220579.984375
888,284189.65625,268799.5,304953.1875,273340.9375,681893.8125,201609.703125,199677.890625,220320.265625
889,284266.375,269153.1875,305114.1875,273515.28125,682075.6875,201738.8125,199843.65625,220500.78125
890,284343.09375,269643.40625,305508.9375,273996.71875,682515.125,202003.28125,200294.171875,221007.0
891,284299.375,269502.3125,305453.9375,273944.59375,682427.9375,201915.5625,200212.71875,220954.421875
892,284181.6875,268869.5,305038.46875,273469.75,681917.0,201583.78125,199715.171875,220430.5
893,284113.21875,268430.15625,304681.65625,273034.25,681586.625,201329.234375,199309.0,219945.109375
894,284207.09375,268698.8125,304801.53125,273163.90625,681689.0,201442.328125,199396.796875,219986.953125
895,284227.125,269275.40625,305181.0625,273631.0625,682078.5625,201690.4375,199837.296875,220448.734375
896,284132.34375,269212.8125,305176.6875,273650.0,682112.75,201644.75,199875.828125,220512.84375
897,284038.21875,268788.0625,304904.8125,273328.15625,681851.0,201467.71875,199572.296875,220205.015625
898,283846.6875,268343.25,304522.40625,272873.96875,681589.5,201195.21875,199175.953125,219766.296875
899,283951.5625,268643.65625,304692.1875,273036.75,681798.6875,201335.3125,199358.171875,219924.71875
900,284312.875,269479.0,305352.75,273758.625,682463.25,201841.0,200071.546875,220656.515625
901,284498.75,269668.28125,305602.09375,274021.75,682737.3125,202035.015625,200361.9375,220955.859375
902,284350.3125,269156.40625,305265.75,273637.59375,682326.75,201807.296875,200010.65625,220587.40625
903,284211.125,268738.53125,304927.96875,273246.59375,681920.8125,201585.5625,199670.5625,220215.03125
904,284273.78125,268984.5625,305049.28125,273384.90625,682005.75,201667.28125,199800.734375,220353.96875
905,284340.21875,269500.71875,305401.71875,273815.59375,682356.125,201852.796875,200164.171875,220784.546875
906,284255.71875,269394.40625,305368.46875,273815.21875,682333.5,201778.5,200130.46875,220805.109375
907,284155.78125,268897.21875,305051.625,273454.375,681964.0,201562.046875,199771.046875,220444.0
908,284117.59375,268587.15625,304798.59375,273153.0,681785.375,201430.984375,199520.4375,220135.28125
909,284216.46875,268923.15625,304990.375,273380.25,681983.75,201600.046875,199764.96875,220344.765625
910,284319.3125,269513.25,305394.84375,273866.625,682393.9375,201855.75,200214.6875,220821.75
911,284244.5625,269411.40625,305376.0,273876.46875,682399.625,201763.84375,200215.578125,220853.21875
912,284082.5625,268779.21875,304941.65625,273373.28125,681913.125,201397.8125,199695.859375,220326.78125
913,284074.25,268482.28125,304697.375,273055.53125,681713.6875,201288.28125,199379.625,219977.65625
914,284136.65625,268794.75,304860.1875,273240.34375,681874.4375,201439.828125,199543.78125,220143.140625
915,284178.75,269325.21875,305214.96875,273672.90625,682241.375,201627.765625,199933.5,220576.0625
916,284181.78125,269321.8125,305270.65625,273746.03125,682304.125,201634.921875,200000.109375,220660.71875
917,284168.5625,268935.5625,305060.1875,273489.4375,682011.75,201523.96875,199765.5,220396.96875
918,284229.34375,268763.46875,304932.25,273305.96875,681858.875,201525.84375,199649.28125,220214.40625
919,284354.71875,269094.4375,305129.75,273521.4375,681997.4375,201699.015625,199869.671875,220411.8125
920,284387.4375,269595.40625,305461.1875,273932.1875,682344.6875,201860.9375,200228.453125,220818.265625
921,284310.4375,269512.6875,305444.75,273943.71875,682345.875,201781.1875,200204.234375,220845.703125
922,284207.4375,269016.40625,305138.15625,273591.96875,681992.0625,201566.34375,199834.4375,220492.8125
923,284164.71875,268720.65625,304900.34375,273300.4375,681816.75,201462.625,199560.3125,220195.1875
924,284216.03125,268987.625,305034.625,273465.28125,681947.5625,201582.4375,199731.265625,220352.984375
925,284310.28125,269500.71875,305386.09375,273888.90625,682284.1875,201751.59375,200110.625,220761.84375
926,284264.65625,269410.40625,305368.28125,273892.21875,682240.0625,201678.546875,200091.390625,220756.203125
927,284169.90625,268858.6875,305000.46875,273444.625,681817.75,201417.84375,199650.53125,220282.359375
928,284141.03125,268566.6875,304763.625,273147.53125,681634.25,201311.71875,199370.5,219943.859375
929,284157.21875,268821.65625,304891.75,273314.8125,681808.1875,201382.796875,199539.75,220099.515625
930,284213.71875,269365.1875,305253.3125,273744.6875,682168.5,201601.296875,199928.234375,220536.0
931,284204.59375,269353.8125,305301.6875,273811.21875,682219.4375,201619.0,199966.84375,220623.625
932,284138.96875,268929.9375,305058.84375,273526.625,681932.1875,201471.921875,199690.5,220354.765625
933,284104.625,268641.4375,304842.9375,273263.6875,681798.3125,201348.90625,199486.46875,220102.828125
934,284212.625,268949.625,305011.46875,273440.25,681963.4375,201501.703125,199691.125,220280.75
935,284331.28125,269534.4375,305418.1875,273913.84375,682365.625,201754.0,200140.5625,220751.03125
936,284357.46875,269529.40625,305491.40625,273996.09375,682446.5625,201782.34375,200226.578125,220862.421875
937,284352.90625,269148.625,305286.65625,273738.25,682153.1875,201668.890625,199971.328125,220608.953125
938,284256.1875,268770.4375,304990.09375,273396.4375,681874.4375,201485.875,199650.171875,220266.078125
939,284274.78125,268974.46875,305074.40625,273491.5625,681954.875,201546.40625,199740.65625,220362.1875
940,284354.96875,269513.25,305440.53125,273928.0625,682307.3125,201748.203125,200122.859375,220791.34375
941,284306.5,269478.53125,305469.59375,273983.6875,682360.0,201732.90625,200170.078125,220869.578125
942,284221.84375,268984.46875,305165.25,273628.46875,682001.4375,201519.3125,199825.59375,220509.890625
943,284180.625,268649.84375,304895.59375,273284.875,681801.5625,201375.734375,199534.5625,220164.0625
944,284266.5625,268881.3125,304992.96875,273374.90625,681863.0625,201467.546875,199600.8125,220205.828125
945,284336.90625,269414.0,305347.5625,273798.6875,682177.25,201662.90625,199967.65625,220604.484375
946,284250.71875,269322.96875,305320.90625,273789.75,682137.8125,201584.046875,199928.40625,220600.1875
947,284124.9375,268836.34375,305009.875,273429.15625,681800.0625,201371.4375,199561.65625,220235.5
948,284078.71875,268539.59375,304771.25,273131.34375,681667.8125,201256.015625,199301.390625,219937.515625
949,284146.46875,268803.78125,304900.6875,273274.59375,681836.9375,201364.90625,199440.25,220059.109375
950,284362.5625,269498.46875,305412.5625,273854.125,682331.1875,201715.65625,199979.90625,220627.734375
951,284535.40625,269665.9375,305645.625,274095.6875,682569.375,201918.875,200225.0625,220899.53125
952,284326.375,269077.03125,305240.53125,273637.9375,682103.0625,201593.875,199796.359375,220458.75
953,284215.0625,268701.34375,304926.28125,273262.96875,681815.875,201405.40625,199467.953125,220085.484375
954,284349.875,269038.65625,305132.34375,273490.5,681993.125,201594.0625,199689.59375,220298.0
955,284461.375,269630.53125,305546.03125,273987.34375,682431.9375,201840.90625,200151.75,220799.296875
956,284419.53125,269589.40625,305573.65625,274041.875,682483.625,201821.421875,200193.765625,220880.21875
957,284323.5,269092.21875,305267.1875,273688.53125,682113.25,201608.359375,199845.265625,220528.9375
958,284241.34375,268711.6875,304942.375,273286.375,681823.625,201422.578125,199494.15625,220121.953125
959,284318.3125,268956.5,305040.34375,273384.03125,681868.25,201507.78125,199579.453125,220179.171875
960,284411.375,269496.15625,305404.6875,273825.25,682171.0625,201726.65625,199953.796875,220580.703125
961,284342.28125,269427.40625,305413.4375,273863.78125,682185.4375,201693.84375,199984.734375,220634.265625
962,284240.25,268932.90625,305103.28125,273501.6875,681860.1875,201457.359375,199644.8125,220278.59375
963,284211.03125,268647.59375,304875.65625,273214.875,681727.6875,201349.796875,199401.171875,219988.03125
964,284259.125,268907.3125,304999.3125,273355.9375,681860.375,201467.1875,199540.921875,220116.0625
965,284325.03125,269444.21875,305362.40625,273802.90625,682214.6875,201663.53125,199940.46875,220559.0625
966,284256.1875,269371.25,305347.46875,273805.9375,682203.0625,201591.203125,199936.71875,220587.5
967,284176.875,268905.8125,305059.125,273465.90625,681870.3125,201399.859375,199618.609375,220246.859375
968,284272.90625,268746.5625,304967.125,273318.40625,681820.125,201436.4375,199531.890625,220101.125
969,284517.875,269188.59375,305284.96875,273652.6875,682076.375,201744.625,199874.140625,220424.234375
970,284588.78125,269723.6875,305645.1875,274082.125,682434.0,201945.609375,200262.078125,220861.703125
971,284457.53125,269586.0,305570.625,274028.71875,682373.6875,201826.15625,200187.6875,220838.203125
972,284391.0,269169.71875,305328.40625,273746.84375,682073.8125,201678.734375,199907.125,220572.203125
973,284321.1875,268860.375,305084.25,273455.8125,681884.0,201554.8125,199665.109375,220301.75
974,284361.0625,269035.53125,305143.96875,273516.625,681915.0,201597.09375,199723.9375,220341.71875
975,284438.3125,269502.0625,305444.125,273871.90625,682134.6875,201711.8125,200020.3125,220660.90625
976,284395.84375,269424.46875,305430.0625,273868.875,682071.9375,201649.671875,199989.65625,220646.0625
977,284308.9375,268975.0,305154.625,273545.125,681800.5,201500.1875,199673.15625,220306.40625
978,284271.5625,268679.34375,304914.8125,273241.5,681646.3125,201381.890625,199404.921875,219990.171875
979,284345.125,268961.59375,305066.0,273407.53125,681806.5625,201525.9375,199563.359375,220137.953125
980,284432.125,269547.21875,305463.0625,273883.8125,682200.6875,201762.765625,199993.046875,220614.328125
981,284349.78125,269473.0,305443.5,273891.59375,682196.4375,201677.75,199981.328125,220644.890625
982,284200.84375,268954.875,305090.15625,273491.65625,681827.0625,201423.5625,199588.21875,220241.671875
983,284183.03125,268662.625,304872.25,273220.0625,681709.75,201337.90625,199372.03125,219969.078125
984,284390.65625,269059.21875,305138.78125,273495.34375,681951.0625,201587.359375,199671.890625,220231.21875
985,284492.65625,269625.875,305527.34375,273957.84375,682317.0,201809.171875,200101.40625,220682.0
986,284462.4375,269581.375,305549.96875,273995.65625,682336.375,201789.6875,200136.1875,220739.84375
987,284474.34375,269204.96875,305365.875,273763.1875,682069.9375,201687.578125,199915.984375,220513.5625
988,284410.40625,268868.96875,305092.46875,273432.03125,681819.1875,201527.265625,199619.5,220186.78125
989,284463.4375,269116.90625,305205.125,273558.1875,681916.1875,201635.90625,199737.34375,220302.5625
990,284560.34375,269680.875,305592.09375,274018.1875,682292.5,201865.9375,200155.859375,220759.703125
991,284549.15625,269668.4375,305640.625,274084.53125,682348.875,201876.859375,200219.0625,220850.53125
992,284456.28125,269187.71875,305350.40625,273746.375,681991.875,201659.859375,199900.6875,220522.40625
993,284415.15625,268894.0,305120.5625,273464.40625,681811.0,201548.1875,199676.09375,220251.15625
994,284491.3125,269185.75,305277.46875,273641.5,681999.25,201678.8125,199871.453125,220425.671875
995,284564.0,269732.375,305650.8125,274093.375,682382.0625,201886.953125,200284.421875,220884.515625
996,284521.09375,269614.1875,305609.25,274053.3125,682298.3125,201794.421875,200206.015625,220849.734375
997,284414.15625,269053.0625,305231.15625,273614.6875,681837.75,201509.484375,199728.3125,220364.34375
998,284357.125,268694.71875,304923.21875,273230.875,681563.4375,201342.921875,199369.34375,219944.84375
999,284488.375,269079.96875,305163.5625,273496.84375,681813.875,201571.265625,199657.859375,220202.328125
1000,284545.59375,269608.90625,305510.71875,273910.71875,682137.5625,201763.9375,200051.34375,220613.609375
1001,284491.125,269553.1875,305522.78125,273946.375,682155.6875,201714.578125,200093.90625,220668.046875
1002,284415.15625,269116.625,305258.875,273634.1875,681862.0,201543.453125,199805.203125,220358.171875
1003,284364.53125,268822.5625,305015.84375,273334.03125,681719.5,201431.15625,199558.984375,220062.59375
1004,284437.40625,269091.21875,305152.125,273484.25,681863.125,201541.75,199716.0625,220206.09375
1005,284570.0,269694.65625,305579.125,273978.5625,682279.1875,201790.75,200175.890625,220706.40625
1006,284503.65625,269623.21875,305569.5625,273984.84375,682272.4375,201735.5,200177.859375,220736.71875
1007,284318.125,269048.3125,305176.34375,273541.8125,681839.1875,201433.125,199744.5,220293.078125
1008,284368.21875,268846.625,305032.5625,273340.9375,681758.4375,201410.328125,199595.1875,220098.4375
1009,284730.46875,269407.1875,305460.28125,273783.84375,682119.3125,201818.921875,200051.875,220534.484375
1010,284775.0,269917.625,305795.40625,274191.8125,682449.375,201982.171875,200421.75,220941.375
1011,284671.90625,269803.28125,305747.375,274167.0625,682406.9375,201875.59375,200380.984375,220938.59375
1012,284578.3125,269336.125,305458.15625,273832.40625,682044.8125,201682.578125,200053.3125,220611.1875
1013,284518.3125,269018.71875,305206.46875,273529.03125,681819.0625,201549.890625,199793.671875,220314.265625
1014,284596.375,269271.03125,305330.5625,273668.15625,681911.875,201645.203125,199930.375,220434.34375
1015,284691.21875,269816.9375,305701.5,274113.40625,682253.4375,201849.5,200325.375,220866.890625
1016,284643.21875,269745.6875,305691.21875,274118.9375,682216.6875,201801.84375,200304.359375,220879.234375
1017,284573.84375,269283.28125,305411.375,273789.21875,681862.8125,201615.875,199974.0,220538.5
1018,284524.5625,268969.28125,305167.5,273493.8125,681702.125,201469.15625,199718.296875,220242.5625
1019,284577.15625,269199.3125,305275.3125,273617.0,681839.5625,201553.109375,199832.109375,220349.859375
1020,284727.71875,269812.84375,305709.75,274126.625,682257.8125,201829.46875,200292.46875,220857.59375
1021,284658.6875,269720.84375,305679.0625,274112.6875,682216.25,201745.25,200254.03125,220859.203125
1022,284646.4375,269323.15625,305456.09375,273839.0,681915.8125,201613.015625,199981.421875,220579.09375
1023,284681.75,269095.71875,305288.09375,273611.21875,681785.5625,201568.125,199798.3125,220347.265625
1024,284782.96875,269378.15625,305437.59375,273768.125,681889.625,201709.390625,199954.609375,220484.953125
1025,284849.75,269910.375,305798.78125,274206.03125,682244.75,201906.796875,200352.828125,220920.984375
1026,284792.25,269844.3125,305801.84375,274229.90625,682255.75,201849.5,200359.078125,220968.734375
1027,284767.5,269464.5,305599.3125,273984.84375,681977.0625,201748.015625,200115.09375,220738.6875
1028,284837.0625,269319.65625,305514.75,273861.09375,681855.3125,201799.515625,200042.40625,220646.421875
1029,284876.40625,269541.3125,305612.1875,273979.125,681930.375,201859.421875,200173.03125,220769.4375
1030,284911.71875,269928.25,305837.15625,274249.84375,682092.0625,201913.328125,200384.828125,221002.078125
1031,284843.5,269727.0,305705.1875,274103.125,681860.75,201737.28125,200180.171875,220804.9375
1032,284779.375,269300.90625,305450.625,273803.78125,681661.75,201591.28125,199874.765625,220467.25
1033,284752.125,269079.78125,305284.15625,273605.75,681611.5,201554.0,199730.1875,220265.453125
1034,284812.5625,269359.90625,305425.78125,273773.65625,681775.875,201686.421875,199901.5,220417.984375
1035,284805.125,269843.78125,305730.21875,274159.28125,682078.625,201821.78125,200253.3125,220807.703125
1036,284726.28125,269768.84375,305727.96875,274186.0,682099.1875,201743.71875,200276.46875,220861.4375
1037,284693.65625,269356.875,305497.3125,273905.625,681816.9375,201613.1875,200003.15625,220582.765625
1038,284780.28125,269191.09375,305390.375,273739.0625,681753.25,201632.6875,199880.21875,220422.8125
1039,284951.5,269564.03125,305628.5625,273981.96875,681955.125,201856.734375,200132.875,220662.25
1040,285053.5,270137.84375,306030.90625,274451.8125,682356.3125,202087.9375,200573.921875,221139.59375
1041,284983.9375,270032.25,305998.34375,274429.28125,682310.1875,202000.59375,200530.109375,221137.265625
1042,284948.1875,269605.9375,305753.0,274126.53125,681962.9375,201857.8125,200222.5625,220833.640625
1043,284912.5,269321.8125,305536.1875,273856.1875,681776.3125,201774.390625,199994.125,220571.765625
1044,284956.9375,269563.03125,305654.5,273993.40625,681913.5625,201871.84375,200135.03125,220706.328125
1045,285057.625,270153.65625,306069.59375,274493.28125,682347.8125,202121.828125,200604.328125,221219.34375
1046,285014.625,270090.96875,306068.09375,274508.84375,682345.9375,202065.046875,200606.921875,221255.734375
1047,284912.4375,269611.3125,305765.1875,274155.6875,681973.3125,201865.9375,200273.78125,220909.546875
1048,284850.09375,269239.375,305459.40625,273778.125,681687.4375,201688.828125,199940.203125,220521.609375
1049,284921.375,269473.0,305560.6875,273884.34375,681770.875,201781.09375,200050.0,220600.375
1050,285021.59375,270033.9375,305941.3125,274336.46875,682114.3125,202005.234375,200469.046875,221041.6875
1051,284989.9375,270014.375,305980.1875,274399.15625,682156.875,202000.140625,200539.328125,221129.9375
1052,284902.84375,269565.8125,305702.59375,274074.5,681835.625,201826.15625,200246.6875,220814.328125
1053,284840.4375,269277.28125,305469.40625,273792.4375,681703.625,201720.03125,200044.453125,220555.84375
1054,284896.15625,269535.125,305587.625,273926.375,681842.5625,201822.84375,200212.546875,220696.3125
1055,284973.5,270083.65625,305952.84375,274369.09375,682210.875,202001.84375,200646.96875,221149.78125
1056,285033.3125,270129.78125,306060.9375,274493.375,682323.0625,202047.359375,200793.515625,221305.890625
1057,285120.5625,269848.34375,305950.78125,274327.25,682123.6875,202050.84375,200669.59375,221156.65625
1058,285053.25,269518.34375,305676.46875,273995.375,681824.5,201906.53125,200406.109375,220840.78125
1059,285136.9375,269792.71875,305822.03125,274157.65625,681936.9375,202028.578125,200581.609375,221003.875
1060,285250.84375,270402.125,306250.46875,274668.34375,682382.0625,202286.78125,201068.078125,221533.328125
1061,285197.1875,270370.125,306278.0,274725.65625,682446.4375,202273.640625,201128.96875,221633.109375
1062,285072.03125,269832.34375,305940.3125,274339.0625,682027.0625,201989.859375,200754.96875,221261.0
1063,285008.09375,269524.84375,305704.1875,274050.1875,681795.375,201855.75,200530.65625,220996.09375
1064,285091.6875,269822.9375,305853.0625,274208.875,681944.0625,201997.375,200708.921875,221161.046875
1065,285183.96875,270357.875,306232.6875,274665.03125,682339.25,202208.734375,201124.40625,221625.6875
1066,285128.15625,270208.375,306165.0,274599.6875,682226.6875,202076.234375,201002.8125,221556.3125
1067,285018.28125,269623.125,305758.28125,274109.1875,681721.5625,201798.71875,200457.609375,221009.765625
1068,284985.46875,269322.53125,305540.21875,273846.0625,681592.4375,201668.09375,200230.15625,220729.390625
1069,285054.40625,269624.09375,305722.4375,274065.21875,681799.0625,201823.828125,200471.46875,220944.953125
1070,285143.1875,270191.84375,306109.5625,274534.96875,682175.8125,202044.9375,200902.671875,221412.8125
1071,285122.34375,270189.78125,306166.78125,274627.21875,682253.25,202030.90625,200986.53125,221530.65625
1072,285015.5,269720.40625,305857.875,274249.03125,681881.1875,201817.3125,200650.90625,221181.15625
1073,284960.15625,269429.1875,305607.1875,273927.625,681700.625,201682.65625,200411.03125,220890.59375
1074,285050.1875,269713.0625,305759.28125,274093.09375,681862.375,201810.421875,200603.515625,221067.171875
1075,285145.15625,270278.125,306150.59375,274553.5625,682265.125,202026.703125,201055.375,221549.25
1076,285264.875,270381.65625,306319.3125,274728.34375,682437.5,202139.4375,201242.78125,221761.953125
1077,285341.75,270048.59375,306170.375,274514.84375,682181.375,202065.046875,201050.109375,221559.890625
1078,285225.34375,269675.40625,305855.75,274140.59375,681808.5,201847.34375,200728.0625,221200.03125
1079,285249.03125,269889.71875,305944.875,274243.03125,681873.0,201889.90625,200833.46875,221303.734375
1080,285339.53125,270458.1875,306342.375,274721.1875,682278.1875,202113.78125,201260.65625,221785.90625
1081,285275.875,270393.1875,306353.75,274768.65625,682320.75,202050.484375,201292.40625,221857.25
1082,285202.625,269953.375,306094.46875,274449.3125,682008.1875,201877.03125,201015.6875,221571.15625
1083,285175.5625,269637.875,305843.6875,274133.34375,681752.9375,201743.1875,200742.453125,221246.875
1084,285222.03125,269770.0,305861.8125,274150.5,681754.6875,201722.09375,200718.859375,221195.46875
1085,285287.03125,270289.375,306204.0625,274555.96875,682052.625,201885.34375,201071.203125,221578.578125
1086,285264.6875,270299.125,306278.71875,274660.3125,682134.4375,201896.703125,201157.21875,221697.390625
1087,285200.59375,269883.75,306042.34375,274374.5625,681847.75,201735.046875,200879.25,221421.390625
1088,285156.96875,269558.75,305783.15625,274047.0625,681648.5,201574.84375,200581.96875,221093.984375
1089,285188.96875,269764.46875,305866.90625,274136.03125,681759.25,201628.125,200659.578125,221171.5
1090,285300.8125,270363.59375,306288.75,274626.15625,682182.3125,201864.96875,201115.90625,221673.171875
1091,285285.25,270359.03125,306340.78125,274698.125,682247.25,201847.078125,201188.421875,221770.984375
1092,285269.34375,269954.09375,306119.59375,274424.53125,681948.1875,201702.421875,200944.421875,221505.34375
1093,285280.15625,269690.625,305913.15625,274151.65625,681746.5,201605.6875,200735.65625,221234.265625
1094,285345.6875,269917.8125,306022.75,274273.0,681847.6875,201672.109375,200872.640625,221343.25
1095,285470.0625,270515.75,306444.5,274773.59375,682269.5,201921.46875,201335.5,221847.328125
1096,285483.46875,270557.40625,306541.9375,274904.03125,682390.5625,201960.265625,201448.6875,222003.96875
1097,285381.1875,270088.3125,306241.625,274554.625,682022.5625,201736.390625,201109.03125,221671.5625
1098,285340.40625,269770.0,305986.46875,274234.09375,681765.625,201609.703125,200832.765625,221359.890625
1099,285431.6875,270067.375,306169.21875,274449.125,681944.625,201749.8125,201064.234375,221573.390625
1100,285512.625,270602.21875,306523.6875,274870.6875,682306.1875,201893.21875,201459.6875,222004.421875
1101,285468.53125,270573.25,306526.90625,274882.75,682306.1875,201823.296875,201464.421875,222035.984375
1102,285369.28125,270010.78125,306184.03125,274487.3125,681879.625,201562.5,201055.921875,221611.65625
1103,285340.59375,269654.3125,305904.03125,274137.53125,681607.4375,201402.453125,200703.921875,221213.171875
1104,285373.5,269909.5,306034.5625,274295.15625,681746.8125,201508.234375,200854.03125,221355.140625
1105,285334.4375,270354.5625,306307.59375,274642.875,682018.25,201606.3125,201151.765625,221707.234375
1106,285208.625,270241.625,306253.4375,274615.6875,681978.5,201481.671875,201087.84375,221696.328125
1107,285173.75,269826.59375,306021.59375,274333.53125,681725.9375,201361.328125,200792.25,221406.640625
1108,285366.25,269776.90625,306018.375,274263.78125,681730.125,201460.3125,200756.3125,221336.640625
1109,285664.0625,270337.75,306379.40625,274618.375,681976.4375,201821.0625,201111.171875,221682.828125
1110,285666.125,270775.03125,306698.40625,275027.5,682354.8125,201925.765625,201498.84375,222112.328125
1111,285603.8125,270680.1875,306698.3125,275058.625,682386.1875,201850.03125,201511.984375,222167.859375
1112,285502.25,270171.375,306368.9375,274677.84375,681979.375,201613.640625,201119.84375,221782.0625
1113,285437.875,269790.3125,306063.15625,274304.71875,681691.5,201433.3125,200764.453125,221396.09375
1114,285505.375,270040.65625,306193.53125,274457.625,681818.375,201548.640625,200903.84375,221525.828125
1115,285600.21875,270614.1875,306589.875,274929.0625,682225.25,201785.84375,201355.15625,222014.96875
1116,285602.90625,270629.9375,306669.53125,275042.15625,682331.8125,201818.203125,201468.984375,222157.125
1117,285472.375,270122.8125,306322.4375,274628.5625,681925.625,201597.28125,201092.484375,221760.515625
1118,285451.09375,269815.25,306058.78125,274293.28125,681702.5625,201440.015625,200804.78125,221412.640625
1119,285550.96875,270068.1875,306199.78125,274449.125,681826.5,201562.765625,200962.578125,221543.625
1120,285665.78125,270661.3125,306624.90625,274959.0,682255.75,201837.421875,201434.375,222044.296875
1121,285617.5,270630.8125,306653.0,275000.21875,682304.375,201812.921875,201482.203125,222121.28125
1122,285501.4375,270090.96875,306282.125,274547.21875,681846.1875,201525.84375,201030.609375,221658.859375
1123,285449.59375,269740.15625,306006.03125,274204.59375,681619.0625,201383.5,200716.53125,221293.90625
1124,285514.3125,270010.53125,306160.625,274386.09375,681795.1875,201512.515625,200905.890625,221456.09375
1125,285593.4375,270564.40625,306550.875,274859.59375,682180.625,201737.375,201336.296875,221917.96875
1126,285565.28125,270561.96875,306585.75,274916.625,682228.3125,201748.375,201384.21875,221990.5625
1127,285562.15625,270178.59375,306397.0,274684.53125,681976.625,201646.0,201171.796875,221764.0
1128,285560.71875,269892.3125,306187.53125,274410.9375,681766.5,201555.96875,200943.4375,221499.0
1129,285682.125,270205.4375,306355.53125,274583.0625,681886.125,201711.890625,201107.234375,221656.71875
1130,285713.96875,270726.3125,306675.5,274955.71875,682190.75,201880.078125,201440.453125,222039.5625
1131,285688.3125,270681.15625,306703.21875,274993.78125,682214.875,201856.46875,201459.5,222108.140625
1132,285650.21875,270300.5625,306492.78125,274736.125,681940.75,201745.25,201219.265625,221864.671875
1133,285582.875,269927.28125,306229.28125,274424.09375,681740.5,201589.765625,200962.390625,221567.046875
1134,285647.15625,270133.375,306317.53125,274524.0625,681855.125,201662.71875,201049.75,221644.46875
1135,285785.9375,270766.90625,306747.65625,275039.65625,682266.125,201940.6875,201497.765625,222142.90625
1136,285737.90625,270733.28125,306764.9375,275088.125,682287.1875,201915.65625,201516.09375,222203.34375
1137,285612.5625,270227.34375,306401.46875,274656.09375,681855.625,201660.3125,201086.9375,221758.015625
1138,285545.6875,269787.71875,306052.0,274230.78125,681513.6875,201452.34375,200663.15625,221284.6875
1139,285583.4375,269991.46875,306146.40625,274349.09375,681644.0,201504.65625,200768.828125,221364.625
1140,285683.125,270642.1875,306572.34375,274855.46875,682045.0,201774.125,201221.953125,221851.0
1141,285612.3125,270604.0,306610.15625,274933.71875,682118.6875,201764.828125,201300.265625,221961.5
1142,285519.0625,270157.59375,306327.71875,274605.5,681777.75,201566.515625,200976.96875,221636.25
1143,285532.1875,269925.125,306154.90625,274371.0625,681680.0625,201559.453125,200813.890625,221432.03125
1144,285668.1875,270207.46875,306339.34375,274577.6875,681861.125,201732.734375,201025.609375,221629.1875
1145,285768.0625,270755.0,306727.8125,275046.1875,682233.1875,201964.03125,201436.875,222085.515625
1146,285729.4375,270760.0,306767.25,275104.125,682293.375,201943.1875,201494.09375,222176.796875
1147,285744.53125,270383.875,306570.5625,274853.25,682009.5,201828.390625,201255.203125,221932.53125
1148,285763.21875,270142.9375,306376.53125,274593.6875,681783.6875,201778.859375,201026.5,221668.15625
1149,285817.65625,270350.96875,306479.34375,274719.84375,681844.375,201875.515625,201127.359375,221770.078125
1150,285856.90625,270831.09375,306787.4375,275095.09375,682116.0,202022.765625,201435.359375,222129.234375
1151,285793.96875,270802.3125,306801.5,275131.125,682129.5625,201985.296875,201453.25,222183.765625
1152,285719.21875,270341.9375,306528.1875,274813.28125,681824.875,201836.34375,201151.3125,221872.28125
1153,285681.9375,269992.8125,306261.90625,274503.125,681646.3125,201699.5625,200874.0625,221545.40625
1154,285785.3125,270226.4375,306383.5,274642.5,681765.625,201809.34375,201001.203125,221640.0
1155,285832.78125,270755.09375,306724.59375,275058.0625,682062.4375,201990.40625,201362.140625,222028.46875
1156,285881.59375,270829.46875,306836.34375,275175.5625,682155.1875,202067.640625,201472.546875,222167.5
1157,285764.5625,270359.84375,306541.3125,274833.5,681825.625,201893.296875,201141.390625,221823.109375
1158,285701.875,270024.8125,306285.875,274534.25,681665.0,201775.90625,200862.53125,221508.84375
1159,285720.40625,270187.8125,306345.5,274589.75,681750.3125,201843.5,200925.109375,221563.109375
1160,285770.71875,270667.21875,306660.9375,274972.15625,682022.625,201987.890625,201248.234375,221918.59375
1161,285774.40625,270673.1875,306720.9375,275039.40625,682076.1875,202013.015625,201319.578125,222009.875
1162,285768.84375,270282.59375,306514.3125,274785.46875,681846.5,201914.046875,201088.640625,221756.859375
1163,285881.25,270113.15625,306412.03125,274616.5,681796.375,201948.109375,200995.75,221603.078125
1164,285994.96875,270366.8125,306549.90625,274760.0,681865.3125,202081.0625,201141.484375,221716.984375
1165,286067.125,270903.5,306898.5,275182.8125,682150.125,202285.359375,201486.765625,222102.5
1166,286004.34375,270865.875,306899.84375,275217.3125,682143.1875,202238.6875,201487.390625,222148.984375
1167,285932.75,270418.03125,306626.4375,274901.25,681845.0625,202084.71875,201164.1875,221832.21875
1168,285900.375,270141.3125,306402.09375,274640.53125,681722.0625,201987.453125,200923.953125,221559.4375
1169,285970.5625,270372.25,306504.21875,274749.8125,681847.5,202055.84375,201035.71875,221653.140625
