Unnamed: 0,EEG 1,EEG 2,EEG 3,EEG 4,EEG 5,EEG 6,EEG 7,EEG 8
0,289992.34375,274617.5625,310264.75,278843.375,681651.875,205683.09375,204699.515625,223825.1875
1,289909.125,274115.46875,309945.40625,278459.375,681281.9375,205490.859375,204317.65625,223442.796875
2,289853.59375,273812.28125,309673.96875,278124.125,681061.0625,205335.734375,204014.03125,223096.4375
3,289927.4375,274162.9375,309855.0,278328.0625,681236.0625,205470.03125,204200.265625,223268.8125
4,290006.84375,274681.125,310227.28125,278777.125,681583.3125,205693.1875,204603.234375,223708.875
5,289961.59375,274535.03125,310193.40625,278754.6875,681536.8125,205649.375,204566.296875,223696.53125
6,289901.4375,274107.3125,309922.5,278421.84375,681235.8125,205512.3125,204246.3125,223362.609375
7,289877.8125,273919.5625,309742.09375,278192.15625,681149.875,205458.234375,204060.796875,223138.90625
8,289888.46875,274191.0,309881.5625,278366.3125,681294.0,205539.859375,204217.078125,223308.421875
9,289930.5625,274670.3125,310215.6875,278772.21875,681628.25,205705.265625,204578.203125,223722.46875
10,289889.09375,274508.125,310169.1875,278729.03125,681574.1875,205634.1875,204525.0,223701.90625
11,289927.8125,274151.75,309982.9375,278479.3125,681297.8125,205582.6875,204303.984375,223459.25
12,289932.0,273962.46875,309826.75,278280.5625,681202.8125,205554.703125,204176.484375,223277.9375
13,289997.90625,274319.03125,310019.25,278510.15625,681385.125,205688.1875,204414.140625,223499.578125
14,290040.375,274790.9375,310349.15625,278920.1875,681715.5625,205858.40625,204788.75,223913.890625
15,289955.875,274597.28125,310261.28125,278844.5625,681619.0625,205758.453125,204693.265625,223860.875
16,289850.09375,274104.375,309936.90625,278464.65625,681271.25,205567.484375,204330.984375,223498.953125
17,289818.0,273853.21875,309724.84375,278202.875,681148.1875,205477.890625,204116.40625,223253.53125
18,289939.0625,274273.96875,309975.53125,278489.4375,681388.75,205672.0,204397.234375,223538.734375
19,289993.59375,274764.09375,310314.28125,278901.875,681735.0625,205861.453125,204768.0,223957.15625
20,289925.03125,274552.40625,310212.8125,278797.34375,681602.875,205756.40625,204634.875,223859.078125
21,289831.40625,274047.875,309886.65625,278408.6875,681256.0625,205555.6875,204258.75,223469.71875
22,289805.65625,273816.3125,309686.65625,278159.59375,681147.5625,205477.625,204062.140625,223229.828125
23,289882.28125,274192.78125,309885.40625,278390.90625,681347.1875,205644.46875,204291.734375,223444.59375
24,290013.09375,274756.25,310302.3125,278883.53125,681770.0625,205926.1875,204744.84375,223932.125
25,289916.96875,274538.875,310196.4375,278780.28125,681652.5,205804.859375,204612.96875,223841.828125
26,289846.4375,274071.1875,309905.53125,278429.78125,681296.3125,205629.078125,204262.953125,223490.640625
27,289824.53125,273844.28125,309714.1875,278189.28125,681176.9375,205553.890625,204072.859375,223263.71875
28,289953.375,274274.5,309972.21875,278480.03125,681407.375,205756.40625,204361.109375,223553.046875
29,290044.84375,274799.59375,310346.125,278929.5,681792.6875,205973.921875,204770.6875,224008.65625
30,290026.40625,274656.09375,310317.59375,278909.1875,681753.625,205943.171875,204731.171875,224004.546875
31,289928.4375,274171.25,309999.5,278538.78125,681367.75,205755.953125,204378.90625,223638.875
32,289869.6875,273934.78125,309791.25,278295.25,681237.9375,205670.84375,204211.171875,223422.59375
33,289950.34375,274310.09375,310001.8125,278546.03125,681421.0625,205824.96875,204477.703125,223675.4375
34,289995.3125,274761.59375,310303.5625,278919.03125,681717.75,205968.46875,204806.453125,224041.640625
35,289914.84375,274547.03125,310197.25,278814.25,681574.75,205855.734375,204671.984375,223939.1875
36,289841.78125,274094.8125,309913.5625,278473.15625,681250.4375,205699.0,204341.53125,223601.234375
37,289826.0625,273870.65625,309723.40625,278234.625,681147.4375,205642.140625,204152.625,223373.6875
38,289908.9375,274248.6875,309932.875,278480.5,681347.25,205799.765625,204389.640625,223611.59375
39,289980.1875,274760.0,310288.375,278910.1875,681708.8125,205983.21875,204773.28125,224046.921875
40,289920.125,274602.8125,310230.0625,278854.375,681645.625,205899.1875,204700.5,224011.15625
41,289826.5,274115.8125,309916.59375,278473.6875,681285.125,205714.640625,204339.5625,223635.65625
42,289798.6875,273870.03125,309709.90625,278216.375,681173.3125,205639.546875,204144.21875,223393.09375
43,289839.03125,274182.59375,309863.0625,278397.0625,681316.9375,205766.5,204326.6875,223564.578125
44,289895.0625,274672.28125,310215.5,278825.40625,681682.3125,205959.265625,204727.5,223999.53125
45,289836.6875,274511.1875,310162.3125,278777.5,681632.6875,205877.375,204675.46875,223974.59375
46,289809.59375,274092.40625,309911.875,278460.1875,681304.375,205760.6875,204380.609375,223664.53125
47,289823.71875,273895.0625,309745.75,278243.1875,681196.625,205728.953125,204217.265625,223457.828125
48,289890.25,274257.09375,309935.84375,278460.46875,681369.0,205878.265625,204437.015625,223670.609375
49,289924.59375,274714.84375,310248.21875,278840.8125,681682.9375,206029.890625,204779.359375,224053.0
50,289832.125,274486.21875,310142.375,278739.5,681567.125,205901.234375,204660.984375,223966.375
51,289768.375,274020.59375,309839.0,278371.9375,681231.6875,205717.15625,204301.75,223592.640625
52,289732.4375,273761.75,309620.5,278104.34375,681100.3125,205621.125,204082.796875,223327.5625
53,289837.40625,274163.5625,309864.40625,278385.53125,681351.625,205841.25,204371.21875,223599.625
54,290010.21875,274804.34375,310340.3125,278936.90625,681851.1875,206182.78125,204884.953125,224158.328125
55,289982.96875,274657.53125,310304.28125,278904.46875,681810.5,206110.546875,204821.65625,224145.265625
56,289851.0,274166.34375,309965.6875,278499.96875,681404.0625,205863.875,204433.984375,223759.5625
57,289771.4375,273813.34375,309664.9375,278128.03125,681144.6875,205677.0,204115.96875,223389.25
58,289810.75,274063.6875,309788.84375,278273.34375,681268.0,205729.40625,204247.484375,223506.015625
59,289876.3125,274545.5,310123.9375,278676.75,681570.625,205908.75,204601.703125,223895.734375
60,289762.03125,274269.59375,309959.15625,278508.375,681338.4375,205731.453125,204395.625,223714.59375
61,289686.65625,273844.09375,309688.71875,278190.28125,681115.625,205584.203125,204101.921875,223395.328125
62,289655.46875,273647.40625,309511.25,277976.0625,681060.375,205526.625,203961.5625,223197.015625
63,289763.125,274042.0625,309739.21875,278242.5,681278.9375,205698.109375,204243.90625,223457.015625
64,289852.59375,274593.59375,310130.03125,278715.8125,681685.4375,205932.0,204695.40625,223939.546875
65,289846.53125,274518.875,310151.125,278749.875,681724.375,205944.0625,204732.6875,224007.234375
66,289886.84375,274175.71875,309965.59375,278499.1875,681448.0625,205872.453125,204508.71875,223772.09375
67,289876.5625,273950.40625,309773.1875,278255.375,681265.1875,205804.953125,204317.3125,223543.5625
68,289922.0625,274253.15625,309923.3125,278438.1875,681382.125,205896.140625,204487.53125,223719.34375
69,289928.59375,274696.875,310217.8125,278805.75,681690.75,206017.921875,204818.875,224100.484375
70,289852.875,274518.5,310143.78125,278738.875,681607.875,205921.53125,204737.25,224056.046875
71,289785.90625,274072.71875,309868.78125,278412.28125,681296.25,205773.921875,204429.15625,223743.5625
72,289772.59375,273854.75,309691.21875,278192.3125,681223.375,205709.015625,204273.3125,223546.875
73,289869.40625,274206.65625,309895.34375,278435.15625,681421.375,205857.078125,204515.609375,223783.265625
74,289956.21875,274772.15625,310304.09375,278934.5,681882.75,206094.71875,204980.53125,224300.84375
75,289885.0625,274597.28125,310224.875,278851.09375,681811.1875,205988.140625,204880.921875,224246.484375
76,289787.78125,274022.375,309819.59375,278350.75,681298.5625,205703.46875,204366.84375,223719.6875
77,289751.40625,273703.75,309543.96875,278005.46875,681025.5,205549.328125,204046.140625,223342.578125
78,289866.71875,274140.3125,309817.375,278327.0625,681296.9375,205773.5625,204373.453125,223648.703125
79,289905.625,274625.25,310152.8125,278744.78125,681633.8125,205931.734375,204756.5625,224063.375
80,289785.46875,274436.53125,310062.6875,278670.21875,681553.1875,205815.5,204677.796875,224011.421875
81,289657.0,273967.84375,309757.90625,278320.0,681243.75,205640.890625,204366.921875,223682.765625
82,289700.0,273840.71875,309646.875,278162.8125,681199.1875,205650.0,204287.171875,223555.1875
83,289909.84375,274357.65625,309994.125,278549.78125,681512.875,205935.390625,204692.640625,223953.578125
84,289978.9375,274837.6875,310326.375,278952.5625,681871.625,206095.078125,205057.78125,224363.328125
85,289873.34375,274632.84375,310211.46875,278838.90625,681741.75,205943.4375,204921.96875,224263.90625
86,289857.625,274204.34375,309971.25,278548.34375,681427.5,205813.4375,204647.75,223982.90625
87,289877.375,273963.28125,309780.8125,278303.46875,681224.9375,205739.59375,204434.25,223738.375
88,289973.84375,274369.375,310019.25,278579.5625,681407.375,205933.25,204690.84375,224008.125
89,289989.59375,274825.25,310329.59375,278969.0,681743.625,206071.03125,205027.828125,224407.5
90,289936.5625,274720.9375,310316.96875,278976.6875,681760.0625,206028.109375,205019.59375,224447.375
91,289853.0625,274240.09375,310019.6875,278624.4375,681429.0,205838.921875,204692.28125,224121.484375
92,289831.59375,273984.75,309803.875,278353.4375,681241.875,205734.9375,204470.8125,223861.140625
93,289929.0625,274332.1875,309997.34375,278572.3125,681387.5,205862.4375,204682.4375,224061.40625
94,289973.3125,274771.71875,310295.96875,278932.0,681664.875,205994.046875,204985.71875,224404.46875
95,289908.9375,274596.8125,310220.59375,278856.8125,681554.3125,205904.09375,204881.828125,224329.984375
96,289863.96875,274163.5625,309953.34375,278533.3125,681232.0,205748.625,204562.109375,224004.09375
97,289825.59375,273922.875,309756.65625,278291.3125,681130.0,205661.8125,204382.125,223780.484375
98,289910.0,274301.78125,309972.75,278540.46875,681345.75,205809.328125,204646.40625,224028.59375
99,289973.75,274810.78125,310329.75,278970.71875,681727.25,205992.171875,205045.171875,224462.578125
100,289910.28125,274662.90625,310267.09375,278913.9375,681663.25,205903.203125,204971.765625,224422.078125
101,289860.65625,274231.6875,310002.0,278591.34375,681342.25,205762.296875,204674.390625,224111.203125
102,289835.8125,273984.65625,309800.75,278337.0,681192.75,205691.765625,204489.859375,223875.890625
103,289872.375,274278.0,309951.5625,278521.34375,681311.625,205774.453125,204682.890625,224058.71875
104,289910.71875,274738.8125,310267.96875,278911.875,681645.4375,205915.90625,205030.234375,224454.171875
105,289890.78125,274603.09375,310236.59375,278882.90625,681605.75,205857.703125,204980.4375,224441.828125
106,289991.625,274305.09375,310111.59375,278699.28125,681386.625,205868.421875,204815.21875,224264.984375
107,290018.90625,274114.125,309958.625,278494.25,681262.25,205828.109375,204679.21875,224083.046875
108,290045.625,274398.4375,310089.96875,278655.46875,681379.5625,205890.515625,204835.953125,224236.28125
109,290074.34375,274863.71875,310391.0,279025.25,681683.0,206022.65625,205159.34375,224606.4375
110,290034.71875,274753.28125,310357.65625,279000.375,681652.0625,205958.734375,205114.734375,224600.0
111,289942.90625,274273.1875,310053.03125,278647.5,681331.0,205768.65625,204777.390625,224261.40625
112,289915.1875,274032.84375,309847.3125,278390.8125,681226.0625,205672.09375,204582.3125,224026.890625
113,289980.5625,274275.5,309957.09375,278511.78125,681273.875,205722.15625,204695.046875,224125.59375
114,290040.625,274703.5,310231.78125,278845.09375,681470.9375,205828.015625,204961.296875,224421.53125
115,289977.40625,274556.40625,310186.4375,278811.03125,681403.5,205769.359375,204905.0625,224392.21875
116,289861.09375,274068.15625,309870.46875,278444.375,681128.4375,205571.5,204556.5625,224034.234375
117,289785.8125,273785.09375,309624.4375,278155.40625,681001.1875,205422.109375,204324.8125,223756.078125
118,289911.96875,274184.3125,309863.40625,278423.90625,681266.5625,205606.46875,204592.59375,224012.5
119,290118.59375,274840.71875,310359.0,278988.75,681760.3125,205938.34375,205118.21875,224574.328125
120,290134.875,274777.59375,310383.03125,279016.21875,681770.1875,205929.9375,205130.90625,224615.734375
121,290056.71875,274300.4375,310078.875,278649.71875,681383.75,205754.34375,204774.359375,224249.4375
122,289991.625,274008.53125,309831.125,278347.1875,681196.25,205625.78125,204520.796875,223954.828125
123,290048.21875,274319.3125,309996.34375,278539.5,681346.9375,205714.5625,204705.6875,224134.546875
124,290091.78125,274815.78125,310342.71875,278958.46875,681693.4375,205881.578125,205075.75,224554.75
125,290028.125,274685.875,310302.125,278924.84375,681648.6875,205806.015625,205016.375,224538.125
126,289980.46875,274253.9375,310046.78125,278618.0,681340.3125,205661.359375,204725.1875,224244.421875
127,289997.0,274027.21875,309873.34375,278393.21875,681244.8125,205588.578125,204552.984375,224034.578125
128,290044.03125,274247.6875,309945.5625,278464.84375,681277.875,205598.515625,204600.28125,224066.59375
129,290132.90625,274772.0625,310300.15625,278887.5625,681570.6875,205795.734375,204961.125,224458.46875
130,290108.3125,274744.0,310341.90625,278951.75,681622.625,205817.46875,205021.65625,224543.578125
131,290030.34375,274292.65625,310055.46875,278609.78125,681302.0625,205633.203125,204703.0,224211.875
132,289977.59375,274001.1875,309805.5625,278304.34375,681136.4375,205504.265625,204453.734375,223915.40625
133,290024.625,274273.25,309920.0,278431.5,681220.9375,205562.390625,204559.6875,224010.71875
134,290053.0625,274743.0,310221.125,278804.78125,681472.4375,205691.3125,204865.015625,224361.453125
135,289925.03125,274554.4375,310141.375,278756.03125,681409.875,205553.359375,204804.65625,224330.515625
136,289869.5,274114.5625,309872.53125,278432.46875,681182.9375,205390.8125,204513.90625,224013.3125
137,290044.28125,274104.90625,309881.28125,278384.375,681235.875,205522.78125,204541.1875,223985.59375
138,290189.9375,274518.15625,310141.90625,278669.6875,681408.1875,205731.71875,204825.859375,224267.40625
139,290158.90625,274916.28125,310387.875,278982.6875,681649.5,205811.390625,205079.40625,224577.28125
140,290085.5,274744.34375,310317.15625,278913.21875,681548.25,205716.4375,204975.15625,224517.109375
141,290115.28125,274374.03125,310136.28125,278678.25,681304.6875,205643.03125,204745.65625,224292.96875
142,290129.5,274188.3125,309992.25,278487.0,681248.3125,205612.359375,204613.0625,224128.46875
143,290169.8125,274486.6875,310145.21875,278668.5,681385.1875,205709.015625,204798.140625,224310.578125
144,290249.40625,275001.46875,310501.34375,279099.625,681740.75,205858.140625,205177.484375,224736.34375
145,290137.8125,274832.40625,310410.125,279017.28125,681657.625,205725.5625,205087.015625,224673.9375
146,290044.84375,274275.5,310039.4375,278579.28125,681265.75,205463.328125,204657.765625,224219.203125
147,290023.375,274049.9375,309849.46875,278349.78125,681188.25,205395.375,204498.4375,223997.921875
148,290096.40625,274321.0,309966.84375,278481.1875,681261.8125,205457.875,204617.53125,224088.671875
149,290174.125,274817.21875,310299.09375,278876.5625,681521.1875,205629.703125,204955.578125,224451.40625
150,290095.34375,274668.1875,310239.0,278827.375,681413.1875,205548.796875,204877.796875,224397.75
151,289987.78125,274225.34375,309964.875,278515.34375,681169.25,205391.171875,204587.84375,224092.875
152,289952.65625,273994.9375,309773.90625,278282.375,681097.375,205309.1875,204425.3125,223877.671875
153,290045.625,274371.6875,309987.78125,278525.90625,681306.0625,205470.203125,204678.6875,224117.640625
154,290193.53125,274974.9375,310447.78125,279061.625,681779.75,205762.296875,205185.265625,224665.265625
155,290202.53125,274874.96875,310451.09375,279063.40625,681776.1875,205728.59375,205176.0625,224681.265625
156,290130.40625,274397.8125,310144.15625,278684.78125,681350.25,205542.09375,204793.75,224294.578125
157,290185.375,274244.5625,310045.25,278536.1875,681257.0625,205575.890625,204688.796875,224166.375
158,290239.375,274557.21875,310221.03125,278742.71875,681401.375,205686.65625,204879.046875,224375.859375
159,290341.21875,275134.15625,310640.09375,279239.09375,681848.6875,205935.03125,205312.234375,224884.84375
160,290279.96875,275004.15625,310601.46875,279214.6875,681820.875,205853.40625,205250.625,224878.9375
161,290115.90625,274442.40625,310213.25,278777.9375,681397.0625,205527.96875,204820.9375,224455.6875
162,290033.9375,274059.75,309885.21875,278379.1875,681116.9375,205309.359375,204471.171875,224054.4375
163,290105.1875,274342.71875,310016.75,278526.34375,681235.0625,205393.40625,204608.234375,224159.578125
164,290198.875,274906.1875,310399.75,278986.09375,681586.5,205609.328125,205030.421875,224599.546875
165,290187.15625,274814.875,310390.375,278985.53125,681532.8125,205568.203125,205010.296875,224592.03125
166,290135.5,274382.59375,310126.96875,278671.8125,681212.4375,205414.15625,204709.71875,224262.125
167,290119.84375,274186.53125,309965.59375,278474.40625,681154.0625,205360.421875,204579.53125,224074.734375
168,290119.5,274483.46875,310105.25,278652.6875,681288.625,205447.765625,204766.578125,224251.578125
169,290082.28125,274919.0625,310384.5625,279017.5625,681598.5,205541.90625,205090.046875,224627.359375
170,289990.375,274751.15625,310311.96875,278954.53125,681531.8125,205423.09375,205004.125,224587.125
171,290031.875,274403.71875,310145.21875,278727.0625,681278.875,205359.609375,204798.40625,224378.171875
172,290159.0,274300.53125,310090.59375,278614.15625,681220.75,205415.3125,204750.65625,224286.171875
173,290308.84375,274672.8125,310327.4375,278865.65625,681398.6875,205588.578125,204993.046875,224529.90625
174,290499.90625,275315.03125,310818.71875,279429.0,681892.1875,205917.875,205494.609375,225098.4375
175,290427.21875,275188.78125,310775.625,279396.28125,681854.9375,205840.4375,205422.828125,225094.59375
176,290285.59375,274681.75,310426.0625,278995.28125,681415.375,205603.515625,205008.78125,224705.671875
177,290222.03125,274429.90625,310240.09375,278785.0,681262.5,205528.5,204853.125,224536.96875
178,290269.4375,274718.40625,310387.96875,278963.375,681417.4375,205586.078125,205031.84375,224722.75
179,290352.9375,275255.3125,310763.8125,279423.46875,681835.1875,205777.328125,205447.953125,225189.359375
180,290295.25,275099.28125,310713.9375,279392.4375,681800.5625,205680.21875,205398.421875,225174.53125
181,290202.1875,274586.71875,310375.625,278982.6875,681399.5625,205444.015625,205009.578125,224767.640625
182,290198.875,274332.90625,310152.65625,278691.65625,681213.8125,205346.296875,204771.671875,224472.046875
183,290295.1875,274673.34375,310313.03125,278869.6875,681288.25,205451.875,204941.90625,224611.890625
184,290372.5,275184.78125,310672.1875,279311.34375,681616.9375,205646.15625,205335.5625,225025.03125
185,290348.09375,275159.46875,310724.40625,279396.28125,681705.875,205670.84375,205423.1875,225134.828125
186,290254.59375,274720.03125,310457.25,279081.75,681403.0,205507.21875,205154.78125,224846.40625
187,290199.96875,274444.65625,310238.375,278813.78125,681243.1875,205402.96875,204968.546875,224607.5
188,290366.59375,274847.625,310505.34375,279105.25,681501.125,205613.34375,205273.6875,224902.453125
189,290438.59375,275340.96875,310847.78125,279510.375,681854.125,205782.59375,205625.328125,225306.671875
190,290378.6875,275216.875,310806.28125,279486.3125,681823.5625,205702.3125,205562.296875,225295.21875
191,290304.28125,274735.125,310507.6875,279136.03125,681457.6875,205510.53125,205208.609375,224952.078125
192,290309.375,274485.96875,310313.40625,278881.9375,681274.5625,205443.46875,205002.4375,224716.5
193,290467.375,274875.0625,310560.875,279151.40625,681482.8125,205649.734375,205271.375,224975.859375
194,290553.1875,275400.3125,310917.96875,279564.46875,681835.25,205865.390625,205633.203125,225390.703125
195,290464.6875,275209.34375,310826.0625,279477.65625,681727.1875,205738.78125,205504.625,225312.390625
196,290336.84375,274665.84375,310469.15625,279066.46875,681336.875,205464.84375,205097.921875,224903.265625
197,290324.0625,274428.21875,310281.03125,278831.59375,681242.3125,205369.890625,204909.359375,224680.1875
198,290428.46875,274794.40625,310494.4375,279069.5,681425.75,205524.84375,205138.78125,224910.5
199,290498.3125,275291.0625,310832.21875,279473.8125,681753.1875,205686.21875,205471.1875,225298.0
200,290427.3125,275137.125,310759.53125,279405.40625,681654.125,205588.578125,205353.171875,225221.28125
201,290292.21875,274584.40625,310382.5,278959.875,681254.5625,205328.5,204909.265625,224765.046875
202,290351.0625,274398.625,310247.875,278770.0625,681196.6875,205305.703125,204760.5,224567.1875
203,290449.75,274753.1875,310453.84375,279008.4375,681383.6875,205473.96875,204988.65625,224780.15625
204,290451.0,275217.125,310756.59375,279379.21875,681683.4375,205612.984375,205315.796875,225150.109375
205,290263.875,274942.46875,310581.71875,279211.65625,681486.1875,205405.125,205108.015625,224990.078125
206,290258.875,274550.6875,310369.09375,278945.59375,681220.4375,205305.609375,204847.21875,224736.15625
207,290278.71875,274335.125,310202.8125,278718.65625,681133.0625,205261.078125,204662.328125,224521.234375
208,290526.5625,274837.78125,310541.84375,279068.96875,681463.6875,205553.890625,204997.328125,224857.9375
209,290792.09375,275513.34375,311077.03125,279668.09375,681970.0625,205921.984375,205524.921875,225447.3125
210,290759.1875,275426.78125,311087.46875,279699.28125,681982.5,205904.375,205520.1875,225499.25
211,290643.5,274957.9375,310770.71875,279331.5625,681582.25,205711.703125,205159.4375,225146.359375
212,290523.6875,274662.28125,310513.5,279038.84375,681366.5,205595.109375,204922.953125,224882.34375
213,290567.0625,274953.5625,310664.3125,279220.34375,681522.625,205673.96875,205125.453125,225073.5
214,290588.53125,275308.15625,310873.25,279475.40625,681652.25,205710.625,205315.0,225286.1875
215,290501.875,275094.03125,310739.875,279340.3125,681439.375,205558.90625,205129.65625,225114.796875
216,290419.09375,274650.8125,310477.1875,279037.65625,681248.5,205403.6875,204853.84375,224804.375
217,290403.8125,274420.96875,310292.28125,278802.625,681167.125,205338.25,204694.953125,224574.328125
218,290485.53125,274699.65625,310420.875,278932.25,681274.5,205437.03125,204829.515625,224672.6875
219,290554.8125,275242.78125,310779.5625,279360.0625,681595.625,205629.890625,205213.875,225079.9375
220,290438.59375,275109.84375,310722.96875,279324.3125,681548.0625,205548.53125,205162.015625,225060.078125
221,290258.34375,274543.90625,310344.34375,278902.65625,681214.6875,205269.765625,204745.390625,224642.546875
222,290265.125,274323.6875,310166.78125,278666.09375,681153.6875,205212.265625,204563.359375,224419.578125
223,290456.28125,274772.34375,310466.09375,278982.15625,681449.4375,205489.4375,204897.640625,224740.0
224,290806.75,275570.28125,311116.71875,279700.8125,682109.625,205970.625,205587.0625,225471.359375
225,290743.5625,275414.28125,311059.5,279645.8125,682023.3125,205876.03125,205497.65625,225428.078125
226,290541.65625,274804.6875,310619.0,279139.15625,681481.8125,205544.5,204985.796875,224923.734375
227,290543.46875,274567.3125,310428.90625,278886.65625,681298.375,205485.40625,204775.78125,224685.640625
228,290709.3125,275003.0,310720.375,279210.3125,681540.75,205742.09375,205094.609375,225009.75
229,290771.09375,275540.34375,311096.15625,279670.125,681957.5,205948.453125,205504.71875,225478.859375
230,290658.625,275370.90625,311010.5,279601.03125,681885.6875,205821.578125,205408.609375,225429.953125
231,290534.15625,274846.625,310651.96875,279186.90625,681437.75,205564.796875,204998.671875,225007.953125
232,290500.375,274577.15625,310400.75,278872.96875,681227.9375,205444.1875,204745.125,224688.421875
233,290577.4375,274813.46875,310502.21875,278978.3125,681303.8125,205523.046875,204849.546875,224748.140625
234,290682.9375,275423.21875,310949.78125,279522.34375,681757.625,205816.484375,205364.53125,225279.578125
235,290643.6875,275341.6875,310951.3125,279536.125,681754.4375,205786.171875,205371.140625,225309.0
236,290586.8125,274905.8125,310693.8125,279221.84375,681424.0625,205652.234375,205071.28125,224999.640625
237,290541.3125,274631.15625,310466.375,278935.5625,681259.625,205549.421875,204840.15625,224735.453125
238,290610.34375,274940.40625,310625.15625,279113.03125,681408.0,205667.890625,205011.375,224907.109375
239,290708.6875,275513.96875,311031.15625,279599.25,681819.625,205893.015625,205452.6875,225397.0625
240,290652.34375,275406.40625,311008.71875,279590.21875,681809.5,205836.59375,205442.578125,225408.5
241,290519.84375,274860.84375,310646.15625,279168.28125,681401.0,205580.265625,205054.5625,224989.09375
242,290490.625,274598.625,310433.46875,278901.9375,681270.9375,205494.265625,204863.40625,224736.78125
243,290616.15625,274976.8125,310656.28125,279141.84375,681456.0625,205678.796875,205111.859375,224979.078125
244,290832.875,275654.78125,311172.96875,279733.15625,681975.4375,206024.984375,205640.4375,225574.265625
245,290733.625,275501.90625,311103.21875,279675.3125,681911.625,205918.5,205542.890625,225541.453125
246,290621.59375,274972.34375,310758.375,279270.9375,681479.625,205690.859375,205132.703125,225140.109375
247,290613.0,274737.90625,310573.75,279037.40625,681331.6875,205638.109375,204949.6875,224918.46875
248,290706.28125,275062.71875,310765.96875,279260.84375,681506.75,205785.453125,205183.390625,225137.328125
249,290736.5625,275537.375,311073.53125,279644.5625,681807.625,205915.90625,205520.90625,225515.703125
250,290639.375,275389.0625,310998.6875,279586.71875,681718.3125,205800.296875,205427.5625,225467.421875
251,290569.125,274963.84375,310746.9375,279292.3125,681422.5625,205662.515625,205154.328125,225191.59375
252,290565.4375,274719.125,310554.15625,279051.15625,681306.125,205588.578125,204970.609375,224965.3125
253,290622.03125,274989.9375,310682.5625,279199.40625,681428.1875,205670.84375,205112.671875,225103.171875
254,290655.3125,275431.875,310946.84375,279515.8125,681633.75,205758.546875,205351.828125,225392.671875
255,290599.78125,275309.5,310909.03125,279492.75,681564.625,205678.4375,205288.171875,225364.25
256,290543.0,274859.25,310640.1875,279174.46875,681273.0,205518.671875,204979.28125,225035.765625
257,290503.03125,274559.53125,310389.5625,278859.84375,681095.9375,205391.53125,204726.96875,224721.234375
258,290586.0,274908.59375,310588.78125,279085.0625,681333.9375,205556.3125,204976.59375,224941.984375
259,290687.5,275485.625,310994.6875,279568.46875,681743.0625,205795.46875,205421.578125,225422.09375
260,290582.96875,275348.28125,310928.59375,279519.125,681673.8125,205681.296875,205345.75,225389.375
261,290486.0625,274867.90625,310617.65625,279152.5625,681357.375,205485.5,204999.65625,225032.640625
262,290482.84375,274594.78125,310411.5625,278892.90625,681239.0,205392.78125,204779.984375,224776.125
263,290675.0625,275011.21875,310700.09375,279207.09375,681504.8125,205650.546875,205094.15625,225085.921875
264,290761.34375,275564.65625,311089.8125,279670.3125,681899.375,205879.515625,205505.796875,225548.15625
265,290654.3125,275411.40625,311023.03125,279619.53125,681835.4375,205771.953125,205423.53125,225514.71875
266,290623.03125,274983.78125,310773.46875,279315.28125,681508.9375,205620.234375,205116.421875,225217.890625
267,290615.25,274696.59375,310538.53125,279008.875,681299.25,205500.421875,204839.265625,224917.921875
268,290667.1875,274970.46875,310669.875,279160.15625,681434.5625,205582.59375,204976.59375,225056.15625
269,290739.625,275535.25,311057.4375,279635.1875,681836.9375,205789.484375,205402.171875,225531.4375
270,290660.40625,275420.09375,311011.03125,279608.8125,681795.625,205697.21875,205347.09375,225517.9375
271,290581.0,274968.59375,310730.3125,279284.625,681457.0,205531.984375,205043.5625,225201.25
272,290563.3125,274714.84375,310522.15625,279030.96875,681307.0625,205453.765625,204858.390625,224958.25
273,290657.53125,275007.65625,310670.125,279200.9375,681429.5,205562.203125,205031.578125,225101.125
274,290725.40625,275535.59375,311016.59375,279614.0625,681745.125,205750.328125,205401.1875,225497.640625
275,290671.125,275422.59375,310994.40625,279607.09375,681709.0,205689.4375,205369.0,225497.015625
276,290605.25,274937.09375,310694.09375,279243.5625,681360.4375,205490.59375,205001.453125,225125.53125
277,290534.15625,274624.09375,310440.34375,278931.53125,681179.1875,205356.03125,204724.46875,224819.84375
278,290654.0625,274994.15625,310672.625,279188.5,681387.625,205556.046875,204980.796875,225077.421875
279,290728.625,275540.0625,311048.59375,279640.375,681772.875,205764.53125,205381.34375,225526.703125
280,290651.71875,275444.03125,311032.3125,279644.5625,681776.1875,205705.96875,205364.34375,225554.234375
281,290578.6875,274987.1875,310757.65625,279314.75,681449.8125,205542.453125,205059.109375,225238.8125
282,290575.71875,274698.21875,310532.0,279022.21875,681276.1875,205430.515625,204819.421875,224955.5625
283,290690.34375,274995.21875,310690.34375,279189.9375,681414.625,205560.59375,204980.4375,225104.25
284,290807.21875,275587.28125,311107.15625,279684.1875,681826.4375,205819.609375,205419.34375,225594.640625
285,290738.625,275474.0,311072.1875,279662.0,681781.0625,205746.75,205356.484375,225585.703125
286,290668.09375,275027.78125,310794.84375,279337.71875,681426.5625,205590.8125,205031.21875,225267.234375
287,290680.6875,274829.375,310637.21875,279135.5625,681331.625,205566.859375,204892.375,225088.6875
288,290773.3125,275149.1875,310800.5625,279319.75,681468.125,205704.28125,205096.125,225274.296875
289,290839.46875,275660.6875,311135.21875,279729.6875,681789.5625,205867.796875,205467.171875,225673.59375
290,290796.03125,275554.8125,311098.21875,279703.9375,681731.375,205786.796875,205427.390625,225654.375
291,290699.84375,275076.3125,310801.1875,279358.90625,681388.75,205600.203125,205107.84375,225318.203125
292,290648.59375,274760.875,310541.28125,279048.5,681219.0,205462.703125,204852.3125,225019.40625
293,290736.5625,275060.59375,310693.375,279217.90625,681379.1875,205574.8125,205019.953125,225180.609375
294,290855.40625,275657.5625,311111.53125,279714.03125,681797.375,205825.78125,205464.046875,225676.71875
295,290812.40625,275607.03125,311125.125,279748.0,681833.125,205798.875,205481.203125,225736.265625
296,290745.25,275157.40625,310851.90625,279425.53125,681494.0,205638.109375,205185.171875,225428.0
297,290710.03125,274865.3125,310619.625,279145.59375,681293.0,205534.5,204983.296875,225164.515625
298,290830.0,275190.03125,310814.875,279368.375,681487.0,205695.328125,205238.5625,225381.5
299,290922.375,275755.625,311211.65625,279846.0,681893.1875,205924.484375,205698.640625,225861.53125
300,290860.125,275679.375,311200.40625,279857.96875,681901.0625,205871.46875,205704.8125,225896.84375
301,290773.0625,275220.96875,310913.5,279523.6875,681550.5625,205689.4375,205389.921875,225575.96875
302,290706.0,274899.75,310651.53125,279211.46875,681315.0,205549.421875,205130.546875,225281.28125
303,290786.90625,275195.6875,310818.375,279405.59375,681464.375,205680.140625,205329.390625,225479.84375
304,290871.75,275748.65625,311205.9375,279872.28125,681884.3125,205889.4375,205750.140625,225957.015625
305,290872.5625,275719.15625,311248.5,279928.25,681947.4375,205872.984375,205784.390625,226036.046875
306,290801.21875,275261.125,310967.59375,279592.625,681583.9375,205703.03125,205463.859375,225713.5625
307,290730.21875,274960.0,310720.1875,279294.28125,681336.5625,205577.765625,205236.234375,225443.734375
308,290792.28125,275248.4375,310876.40625,279477.46875,681477.5625,205686.84375,205422.109375,225630.953125
309,290877.03125,275800.78125,311266.28125,279947.9375,681899.375,205891.046875,205832.578125,226106.140625
310,290803.625,275658.34375,311215.78125,279909.21875,681855.9375,205773.125,205750.140625,226083.25
311,290703.9375,275158.9375,310902.84375,279541.125,681475.3125,205555.6875,205374.546875,225723.484375
312,290670.78125,274892.0625,310699.625,279286.5,681320.1875,205469.765625,205163.625,225493.265625
313,290791.125,275242.4375,310914.21875,279520.125,681507.3125,205638.5625,205394.484375,225734.125
314,290867.28125,275797.65625,311293.9375,279974.65625,681907.9375,205831.59375,205790.828125,226191.53125
315,290786.5625,275705.46875,311267.90625,279967.0625,681908.125,205745.21875,205755.859375,226206.1875
316,290707.96875,275258.09375,310995.125,279645.0,681569.25,205563.109375,205447.40625,225899.53125
317,290689.28125,275004.53125,310797.8125,279398.0625,681344.125,205479.6875,205259.75,225675.109375
318,290768.3125,275318.59375,310967.21875,279596.1875,681498.5625,205603.15625,205456.4375,225875.203125
319,290856.5625,275907.1875,311375.8125,280085.96875,681956.5,205818.09375,205889.34375,226375.078125
320,290813.5625,275878.28125,311409.71875,280149.0,682047.6875,205782.6875,205922.25,226472.171875
321,290728.96875,275453.625,311154.90625,279858.59375,681753.0625,205604.9375,205636.859375,226205.125
322,290698.03125,275226.15625,310977.0625,279642.875,681517.3125,205526.453125,205488.09375,226028.265625
323,290773.3125,275544.4375,311150.0625,279849.03125,681666.125,205640.34375,205703.375,226243.203125
324,290873.71875,276137.75,311563.40625,280351.78125,682152.1875,205836.78125,206146.390625,226748.53125
325,290826.6875,276130.4375,311617.3125,280448.15625,682296.0625,205799.5,206215.59375,226880.859375
326,290737.75,275740.15625,311394.15625,280200.5,682082.75,205631.859375,205978.484375,226673.34375
327,290719.125,275570.125,311263.6875,280044.84375,681943.1875,205574.09375,205877.375,226569.90625
328,290806.59375,275988.28125,311516.53125,280354.28125,682247.25,205732.796875,206181.703125,226910.890625
329,290903.59375,276690.46875,312019.09375,280977.34375,682928.625,205979.734375,206737.640625,227568.484375
330,290870.59375,276797.40625,312165.0,281194.78125,683276.875,205986.171875,206919.140625,227851.28125
331,290799.6875,276520.5,312038.40625,281077.3125,683286.25,205861.09375,206808.28125,227807.828125
332,290772.875,276438.53125,311983.4375,281033.5,683360.625,205830.875,206811.671875,227852.984375
333,290867.28125,276938.21875,312324.34375,281465.15625,683901.5625,206027.75,207226.25,228356.078125
334,290975.90625,277700.40625,312894.84375,282181.3125,684798.3125,206296.15625,207859.34375,229147.765625
335,290954.5625,277868.21875,313111.375,282490.375,685367.1875,206330.75,208111.828125,229569.234375
336,290930.5,277698.4375,313099.75,282510.5,685653.75,206286.765625,208123.453125,229711.84375
337,290984.0625,277725.625,313174.40625,282620.21875,686036.125,206350.234375,208277.5,229961.28125
338,291061.21875,278209.125,313525.78125,283073.15625,686769.5625,206540.953125,208732.21875,230547.96875
339,291128.71875,278908.21875,314070.375,283765.875,687812.8125,206781.71875,209366.65625,231374.359375
340,291060.75,278940.5625,314196.59375,283974.1875,688422.0625,206726.015625,209535.640625,231731.09375
341,290983.53125,278603.59375,314070.46875,283858.59375,688708.125,206592.71875,209430.484375,231769.984375
342,290947.21875,278410.3125,313983.28125,283773.03125,689018.5625,206538.0,209404.203125,231850.0
343,291054.59375,278761.3125,314253.375,284101.3125,689706.375,206707.0625,209732.328125,232309.828125
344,291131.75,279332.96875,314708.90625,284667.53125,690680.1875,206920.21875,210238.546875,233001.5625
345,291042.875,279239.375,314731.71875,284740.5,691200.4375,206810.515625,210271.8125,233211.046875
346,290963.75,278833.46875,314540.1875,284534.5,691430.3125,206659.40625,210079.046875,233140.15625
347,290936.84375,278614.78125,314425.03125,284407.375,691730.75,206594.40625,210023.265625,233162.59375
348,290999.6875,278863.875,314586.96875,284604.59375,692289.1875,206653.421875,210221.296875,233460.3125
349,291048.15625,279437.21875,315009.78125,285131.28125,693228.5,206833.21875,210688.625,234089.921875
350,290995.21875,279451.625,315105.34375,285284.625,693855.375,206788.875,210800.921875,234371.546875
351,290966.15625,279144.96875,314977.75,285151.9375,694163.3125,206669.515625,210655.640625,234358.859375
352,290936.9375,279048.21875,314927.0625,285112.4375,694589.6875,206648.0625,210671.546875,234472.3125
353,291035.8125,279528.0625,315270.3125,285541.21875,695496.3125,206854.5,211105.359375,235038.96875
354,291121.5625,280252.0,315821.59375,286239.21875,696739.25,207107.078125,211734.78125,235875.109375
355,291052.625,280353.46875,315991.625,286505.03125,697629.1875,207090.359375,211960.703125,236311.421875
356,291018.9375,280129.34375,315942.09375,286479.5625,698216.875,207005.234375,211929.0625,236453.125
357,291104.9375,280161.0625,316028.90625,286588.34375,698932.3125,207076.9375,212069.15625,236738.515625
358,291203.5625,280670.5,316401.46875,287058.625,700046.9375,207275.875,212522.09375,237370.984375
359,291295.71875,281433.875,317000.15625,287821.71875,701593.0625,207537.5625,213204.453125,238299.828125
360,291300.46875,281655.59375,317294.46875,288229.875,702887.125,207614.359375,213566.375,238914.140625
361,291223.40625,281407.21875,317238.40625,288214.9375,703704.75,207502.078125,213548.671875,239106.453125
362,291167.0625,281275.34375,317187.09375,288195.375,704464.1875,207431.4375,213565.203125,239299.84375
363,291238.0625,281680.8125,317486.25,288584.625,705506.5625,207571.1875,213938.21875,239873.84375
364,291334.96875,282367.625,318041.65625,289286.40625,706482.4375,207821.796875,214571.921875,240761.5625
365,291290.4375,282441.46875,318227.0625,289562.03125,706682.5625,207836.625,214817.703125,241254.640625
366,291196.84375,282061.5,318077.6875,289419.78125,706687.5625,207681.59375,214691.734375,241327.421875
367,291139.625,281804.8125,317935.6875,289273.53125,706682.4375,207568.046875,214599.28125,241389.46875
368,291239.5,282149.125,318208.3125,289612.8125,706705.5,207737.5625,214946.546875,241912.578125
369,291333.625,282760.21875,318703.15625,290229.09375,706726.25,207980.9375,215511.234375,242708.484375
370,291282.5,282747.4375,318807.9375,290395.65625,706728.9375,207954.375,215651.34375,243078.890625
371,291204.96875,282315.96875,318610.28125,290178.6875,706731.625,207784.59375,215444.984375,243054.046875
372,291167.4375,282004.71875,318417.875,289944.53125,706719.8125,207660.40625,215266.4375,243000.84375
373,291235.71875,282225.9375,318574.875,290125.21875,706716.5,207745.796875,215454.5625,243334.609375
374,291337.9375,282753.96875,318992.65625,290627.40625,706728.375,207953.75,215910.796875,243986.375
375,291303.78125,282667.78125,319025.9375,290689.90625,706722.75,207903.421875,215949.421875,244212.84375
376,291222.5,282151.625,318746.0,290363.125,706718.625,207707.96875,215635.0625,244035.546875
377,291187.90625,281787.5625,318499.6875,290057.96875,706720.875,207594.34375,215391.171875,243879.8125
378,291248.53125,281945.28125,318584.78125,290149.71875,706729.375,207668.28125,215497.828125,244090.265625
379,291324.6875,282382.65625,318905.125,290526.28125,706733.875,207826.625,215830.6875,244570.65625
380,291274.4375,282230.21875,318873.84375,290501.0,706728.3125,207746.515625,215787.0625,244665.0625
381,291194.875,281679.75,318547.34375,290109.46875,706726.8125,207544.453125,215413.515625,244375.5625
382,291169.40625,281285.625,318263.03125,289750.0625,706733.3125,207430.375,215120.796875,244116.28125
383,291243.875,281415.09375,318312.0,289786.0,706745.5625,207504.484375,215173.640625,244226.609375
384,291322.5625,281820.46875,318585.78125,290096.25,706754.0625,207666.84375,215440.515625,244600.875
385,291252.375,281613.5625,318480.625,289973.03125,706747.6875,207570.203125,215300.15625,244554.828125
386,291152.9375,280969.40625,318061.84375,289457.6875,706738.5,207326.65625,214807.6875,244095.640625
387,291104.5625,280466.9375,317670.25,288952.1875,706732.75,207168.140625,214374.15625,243639.65625
388,291156.78125,280496.96875,317626.8125,288861.34375,706742.0,207221.6875,214314.34375,243568.578125
389,291211.9375,280811.9375,317813.125,289057.34375,706753.9375,207332.203125,214485.03125,243773.59375
390,291132.375,280509.59375,317609.71875,288801.09375,706736.625,207181.28125,214217.515625,243527.8125
391,291011.3125,279799.96875,317115.03125,288186.5,706728.875,206914.21875,213631.640625,242907.6875
392,290957.21875,279262.625,316676.5,287614.46875,706740.1875,206736.390625,213149.46875,242336.375
393,291036.53125,279258.5,316587.71875,287449.96875,706759.0625,206787.890625,213025.09375,242133.59375
394,291055.40625,279447.59375,316645.1875,287483.9375,706754.0625,206840.453125,213032.78125,242104.71875
395,290952.125,279045.0,316340.3125,287094.75,706738.875,206650.46875,212645.828125,241664.484375
396,290832.15625,278212.96875,315725.75,286312.8125,706724.5625,206327.078125,211901.96875,240804.5625
397,290743.8125,277477.875,315103.90625,285501.0,706712.375,206056.546875,211180.71875,239900.296875
398,290757.21875,277223.4375,314794.125,285051.09375,706715.8125,205976.25,210790.640625,239321.125
399,290759.65625,277161.90625,314649.71875,284802.625,706716.4375,205951.125,210546.640625,238917.625
400,290647.71875,276461.3125,314102.03125,284072.90625,706712.5,205680.859375,209851.859375,238031.875
401,290483.03125,275228.84375,313159.03125,282847.84375,706706.3125,205221.296875,208704.421875,236610.125
402,290357.84375,274032.21875,312164.03125,281524.09375,706707.3125,204801.71875,207518.609375,235058.203125
403,290325.5625,273236.9375,311403.28125,280452.90625,706708.125,204531.96875,206543.546875,233691.515625
404,290270.6875,272591.78125,310743.0,279499.8125,706682.6875,204252.125,205616.203125,232378.40625
405,290126.1875,271373.15625,309721.625,278120.0,706667.875,203776.9375,204288.34375,230604.921875
406,289931.375,269719.5,308365.21875,276318.0,706661.6875,203167.625,202590.5,228359.734375
407,289790.1875,268201.1875,307014.0,274498.75,706650.5,202597.65625,200922.96875,226050.53125
408,289790.1875,267299.4375,306048.875,273132.25,706650.1875,202272.484375,199646.0625,224116.65625
409,289807.625,266819.65625,305389.40625,272153.15625,706629.9375,202084.09375,198663.46875,222518.59375
410,289720.90625,265981.5625,304515.875,270954.375,706062.375,201740.0625,197458.359375,220691.296875
411,289615.9375,264975.75,303516.84375,269621.15625,703816.6875,201345.328125,196134.875,218715.765625
412,289585.8125,264366.6875,302739.8125,268569.0,701056.3125,201109.390625,195112.234375,217025.703125
413,289706.6875,264536.75,302514.6875,268194.75,699017.6875,201201.109375,194715.796875,216015.5
414,289864.3125,265196.75,302687.96875,268333.6875,697636.0625,201446.71875,194751.734375,215539.9375
415,289838.125,265373.25,302592.9375,268203.4375,696085.3125,201457.984375,194536.09375,214865.1875
416,289800.3125,265229.03125,302299.03125,267833.09375,694308.5,201368.9375,194109.265625,213978.265625
417,289841.6875,265319.34375,302152.78125,267637.84375,692724.6875,201411.484375,193900.140625,213318.0
418,289957.46875,265934.1875,302376.28125,267901.40625,691639.5625,201661.296875,194125.171875,213153.3125
419,290066.28125,266825.5625,302855.78125,268490.15625,690985.6875,201989.421875,194636.140625,213350.453125
420,290044.84375,267122.84375,302998.21875,268697.40625,690047.5625,202067.921875,194795.734375,213220.625
421,289993.4375,266992.59375,302850.15625,268546.3125,688762.0,201998.453125,194637.03125,212757.59375
422,289996.1875,267000.625,302749.84375,268439.46875,687511.875,201998.625,194559.875,212364.03125
423,290066.8125,267517.84375,302986.3125,268742.0,686679.125,202187.09375,194851.875,212391.5625
424,290174.90625,268365.78125,303526.59375,269419.625,686318.0625,202505.5625,195462.890625,212825.546875
425,290173.40625,268648.84375,303746.28125,269729.15625,685685.6875,202606.859375,195732.984375,212939.625
426,290136.21875,268517.25,303683.59375,269690.8125,684727.0625,202575.484375,195701.875,212724.78125
427,290122.25,268515.8125,303638.375,269664.5,683788.1875,202570.828125,195722.875,212552.40625
428,290202.28125,269014.875,303917.40625,270024.90625,683215.1875,202729.171875,196068.96875,212754.90625
429,290257.0,269782.4375,304416.1875,270669.625,682988.5,202942.5,196628.65625,213245.125
430,290210.3125,270040.375,304645.625,271009.625,682566.1875,202995.515625,196916.109375,213485.359375
431,290127.28125,269879.96875,304586.625,270993.28125,681822.9375,202915.578125,196890.984375,213394.34375
432,290179.125,269956.96875,304662.15625,271102.0,681321.0625,202994.4375,197038.140625,213452.734375
433,290320.125,270541.59375,305077.09375,271620.1875,681305.1875,203274.46875,197566.71875,213923.375
434,290413.625,271310.03125,305636.0625,272326.6875,681371.125,203549.84375,198214.921875,214589.8125
435,290387.53125,271503.78125,305849.21875,272633.90625,681238.0,203589.890625,198479.65625,214887.265625
436,290330.5625,271291.09375,305780.28125,272597.5,680896.3125,203502.890625,198430.390625,214839.53125
437,290282.21875,271201.40625,305743.8125,272592.3125,680593.0625,203484.75,198487.796875,214857.578125
438,290353.28125,271623.6875,306052.4375,272985.53125,680700.875,203652.46875,198923.203125,215274.671875
439,290430.90625,272298.8125,306553.46875,273609.6875,681081.75,203864.375,199500.234375,215904.8125
440,290385.65625,272364.15625,306670.5,273785.90625,681048.625,203818.234375,199629.078125,216092.390625
441,290304.46875,272076.53125,306544.25,273673.15625,680719.625,203693.515625,199516.0625,216001.71875
442,290281.5,271953.6875,306481.6875,273626.03125,680458.6875,203671.34375,199522.671875,216002.0
443,290353.5625,272294.40625,306719.0625,273938.0,680522.9375,203799.8125,199833.640625,216333.515625
444,290469.59375,272998.6875,307276.34375,274636.6875,681047.125,204084.84375,200501.328125,217065.40625
445,290402.625,273054.28125,307414.5625,274861.03125,681171.5,204069.015625,200723.859375,217346.9375
446,290292.03125,272683.15625,307232.6875,274691.6875,680902.3125,203891.375,200571.953125,217234.921875
447,290241.875,272505.78125,307118.4375,274577.875,680686.375,203824.671875,200514.296875,217202.90625
448,290303.65625,272861.0,307360.71875,274884.09375,680867.875,203971.125,200833.203125,217578.78125
449,290430.4375,273535.65625,307885.09375,275525.75,681282.625,204242.109375,201426.78125,218283.65625
450,290464.25,273668.78125,308104.875,275810.96875,681349.4375,204333.046875,201696.515625,218650.3125
451,290373.59375,273296.125,307931.9375,275633.3125,681148.375,204187.3125,201543.640625,218547.59375
452,290344.53125,273063.84375,307790.96875,275475.78125,680972.75,204100.578125,201438.765625,218470.703125
453,290483.8125,273395.65625,308035.125,275752.0625,681123.0625,204273.578125,201716.09375,218799.53125
454,290575.28125,273982.875,308483.6875,276297.0,681400.375,204495.140625,202196.21875,219386.5
455,290532.1875,274038.3125,308620.375,276497.71875,681425.625,204509.4375,202352.40625,219666.078125
456,290427.3125,273627.9375,308419.5625,276287.6875,681222.4375,204331.703125,202120.84375,219535.359375
457,290383.5,273351.375,308245.5,276082.15625,681041.6875,204221.375,201933.53125,219408.578125
458,290429.46875,273520.0,308338.75,276191.5,681065.1875,204248.90625,202005.328125,219550.109375
459,290495.625,274057.6875,308725.96875,276666.25,681333.0625,204436.125,202404.078125,220055.53125
460,290465.84375,274068.6875,308813.40625,276797.125,681306.875,204431.125,202497.6875,220243.640625
461,290376.1875,273649.75,308593.84375,276560.75,681090.25,204271.078125,202260.859375,220057.9375
462,290318.6875,273372.40625,308398.125,276337.125,680885.0625,204169.25,202094.921875,219897.1875
463,290393.0625,273634.8125,308557.625,276526.6875,681017.625,204282.078125,202312.984375,220130.984375
464,290508.40625,274242.59375,309007.25,277068.125,681370.9375,204528.390625,202818.84375,220714.640625
465,290465.21875,274266.5625,309088.6875,277188.03125,681364.25,204537.609375,202920.140625,220903.28125
466,290364.03125,273830.4375,308851.59375,276923.8125,681147.4375,204362.015625,202671.5,220700.59375
467,290331.28125,273551.75,308669.1875,276702.4375,680995.5625,204268.484375,202504.578125,220548.96875
468,290370.8125,273759.71875,308784.8125,276838.4375,681105.8125,204328.84375,202653.703125,220736.1875
469,290442.5,274298.28125,309164.53125,277299.25,681389.0,204519.28125,203058.546875,221231.859375
470,290421.25,274329.21875,309257.9375,277432.375,681404.75,204531.703125,203158.5,221425.15625
471,290426.4375,273980.53125,309108.90625,277250.96875,681246.8125,204446.859375,202982.734375,221293.8125
472,290450.03125,273743.625,308961.28125,277058.75,681122.125,204394.375,202841.46875,221154.96875
473,290479.96875,273952.90625,309068.59375,277187.21875,681203.0625,204459.109375,202974.765625,221321.53125
474,290560.34375,274543.4375,309488.78125,277696.375,681551.5,204697.203125,203429.9375,221871.203125
475,290516.0,274551.125,309568.71875,277820.21875,681577.0625,204686.921875,203508.890625,222055.65625
476,290430.625,274086.9375,309302.65625,277517.46875,681266.8125,204489.765625,203180.40625,221794.40625
477,290371.71875,273776.15625,309069.84375,277238.53125,681078.0625,204363.703125,202939.28125,221571.25
478,290414.8125,273980.90625,309180.0625,277364.15625,681184.625,204448.109375,203078.484375,221738.609375
479,290491.6875,274542.90625,309577.21875,277840.78125,681513.5625,204663.578125,203515.59375,222252.34375
480,290459.5,274561.96875,309650.625,277946.1875,681526.4375,204665.71875,203598.296875,222412.828125
481,290390.84375,274125.90625,309392.5,277645.59375,681220.5,204497.8125,203293.6875,222147.375
482,290339.875,273809.40625,309162.625,277370.84375,681042.0625,204363.703125,203074.640625,221923.15625
483,290410.0625,274060.03125,309305.0625,277530.71875,681195.1875,204471.890625,203263.734375,222121.453125
484,290502.34375,274642.4375,309716.4375,278020.5625,681556.6875,204695.859375,203721.140625,222644.21875
485,290461.03125,274637.59375,309772.03125,278105.875,681563.375,204675.46875,203783.453125,222774.21875
486,290382.34375,274188.9375,309515.625,277810.5625,681262.6875,204499.875,203490.828125,222510.109375
487,290359.53125,273912.875,309317.65625,277565.9375,681129.5,204410.109375,203303.875,222310.375
488,290430.4375,274141.75,309431.5625,277691.03125,681220.5625,204502.734375,203446.65625,222457.359375
489,290509.03125,274687.3125,309804.84375,278137.15625,681509.4375,204703.359375,203841.578125,222914.859375
490,290458.875,274693.65625,309868.15625,278240.15625,681529.5625,204688.875,203911.484375,223053.796875
491,290405.40625,274306.0,309665.1875,278005.8125,681287.625,204549.671875,203674.109375,222853.078125
492,290374.9375,274027.65625,309467.78125,277760.65625,681171.75,204461.34375,203476.34375,222656.28125
493,290489.375,274315.46875,309651.34375,277959.15625,681331.375,204622.8125,203685.5625,222887.5
494,290584.59375,274860.9375,310036.3125,278412.71875,681642.5,204826.203125,204079.296875,223363.140625
495,290498.75,274768.5,310001.09375,278395.375,681527.625,204706.765625,203997.5,223368.0625
496,290408.4375,274338.25,309754.0625,278113.46875,681251.4375,204535.09375,203696.015625,223106.984375
497,290381.625,274079.875,309571.3125,277886.1875,681160.125,204464.734375,203517.296875,222925.484375
498,290459.78125,274336.28125,309723.3125,278056.875,681303.4375,204593.21875,203707.015625,223136.046875
499,290537.1875,274875.78125,310095.78125,278507.5,681626.0625,204782.9375,204100.21875,223605.875
500,290529.15625,274902.96875,310176.78125,278618.71875,681679.6875,204792.421875,204170.328125,223755.453125
501,290456.46875,274470.3125,309929.125,278332.53125,681361.875,204632.203125,203880.015625,223494.296875
502,290409.34375,274162.3125,309699.71875,278053.84375,681197.5,204523.03125,203656.5,223251.734375
503,290478.71875,274381.4375,309808.96875,278170.59375,681288.8125,204611.0,203796.59375,223387.453125
504,290553.125,274947.46875,310180.09375,278616.21875,681607.1875,204807.171875,204206.265625,223844.0625
505,290507.6875,274952.125,310228.71875,278691.65625,681636.0,204779.890625,204266.171875,223955.1875
506,290427.21875,274491.59375,309953.0,278367.03125,681305.1875,204580.078125,203944.296875,223645.21875
507,290401.75,274207.90625,309753.0,278121.875,681191.875,204488.875,203753.421875,223428.671875
508,290459.9375,274449.84375,309882.46875,278269.21875,681316.0,204593.390625,203922.3125,223600.421875
509,290506.8125,274990.21875,310237.40625,278700.0625,681642.125,204783.46875,204309.796875,224052.640625
510,290468.625,275008.28125,310313.40625,278813.625,681730.3125,204783.109375,204398.671875,224210.890625
511,290401.21875,274597.1875,310082.46875,278549.15625,681434.8125,204608.6875,204139.828125,223980.671875
512,290358.84375,274284.4375,309843.75,278258.5,681223.8125,204483.0625,203894.5,223724.875
513,290464.78125,274539.25,309992.15625,278421.3125,681349.9375,204610.734375,204069.203125,223909.421875
514,290601.40625,275151.34375,310433.1875,278939.0625,681772.6875,204871.546875,204541.890625,224448.453125
515,290594.5,275186.8125,310526.09375,279060.8125,681876.5625,204891.125,204630.40625,224614.75
516,290494.5625,274718.96875,310249.90625,278742.625,681517.9375,204705.875,204305.953125,224327.484375
517,290430.625,274406.84375,310001.8125,278445.0,681290.25,204589.8125,204052.296875,224067.484375
518,290487.5,274602.8125,310094.96875,278549.6875,681359.0625,204666.078125,204166.5625,224193.734375
519,290555.09375,275123.25,310441.6875,278968.28125,681672.625,204834.796875,204530.1875,224620.921875
520,290519.75,275153.90625,310515.8125,279076.65625,681762.5625,204835.421875,204610.65625,224768.078125
521,290452.53125,274738.625,310288.625,278812.90625,681471.3125,204688.609375,204349.578125,224537.671875
522,290412.75,274463.875,310081.75,278560.59375,681280.375,204606.0,204152.171875,224328.734375
523,290471.40625,274718.34375,310212.53125,278709.28125,681410.6875,204720.890625,204332.421875,224514.078125
524,290549.34375,275258.96875,310576.53125,279147.03125,681770.875,204903.1875,204724.90625,224962.09375
525,290502.5,275240.5625,310607.8125,279205.75,681806.8125,204848.65625,204754.78125,225043.71875
526,290418.90625,274779.65625,310329.75,278883.09375,681424.25,204645.078125,204433.265625,224727.578125
527,290403.09375,274530.125,310147.28125,278659.125,681230.25,204579.53125,204265.71875,224526.953125
528,290484.28125,274797.71875,310297.9375,278834.53125,681368.9375,204709.4375,204461.96875,224722.125
529,290571.0,275402.03125,310719.125,279345.21875,681820.625,204946.546875,204927.234375,225253.203125
530,290485.15625,275402.375,310758.375,279421.84375,681918.5,204892.640625,204971.046875,225375.25
531,290375.625,274982.71875,310516.34375,279152.125,681653.6875,204714.984375,204704.078125,225149.3125
532,290383.15625,274750.15625,310369.46875,278965.875,681455.8125,204685.21875,204580.515625,225023.421875
533,290475.3125,274971.96875,310500.4375,279109.03125,681536.0,204792.765625,204741.453125,225199.921875
534,290602.46875,275538.71875,310900.96875,279576.875,681965.5,205006.453125,205159.15625,225685.125
535,290593.34375,275568.6875,310976.96875,279676.46875,682078.4375,205000.90625,205221.125,225822.1875
536,290544.4375,275184.21875,310770.0,279432.84375,681834.875,204873.0625,204971.234375,225615.65625
537,290520.46875,274931.125,310598.0625,279223.5625,681619.8125,204839.078125,204813.96875,225465.0
538,290567.25,275137.125,310702.9375,279349.78125,681718.3125,204937.515625,204961.578125,225635.953125
539,290640.71875,275637.25,311035.53125,279755.4375,682104.125,205089.609375,205303.546875,226056.96875
540,290571.4375,275600.875,311055.375,279813.53125,682201.3125,205024.515625,205327.421875,226154.328125
541,290469.15625,275099.375,310742.71875,279452.34375,681837.0625,204791.875,204968.546875,225813.78125
542,290452.875,274741.3125,310472.375,279112.0625,681436.4375,204661.171875,204669.484375,225487.359375
543,290502.96875,274826.59375,310466.375,279094.90625,681300.8125,204672.078125,204648.46875,225446.859375
544,290593.34375,275348.1875,310811.75,279512.0625,681634.375,204863.671875,205013.703125,225847.046875
545,290552.5,275371.09375,310884.96875,279621.5,681761.0625,204881.109375,205108.46875,225990.09375
546,290511.96875,274941.3125,310646.25,279336.125,681486.5,204746.8125,204832.46875,225727.328125
547,290457.90625,274557.65625,310336.03125,278954.53125,681202.1875,204580.875,204492.71875,225362.640625
548,290494.1875,274730.03125,310393.40625,279017.28125,681300.9375,204653.296875,204576.3125,225436.75
549,290543.71875,275237.0625,310720.03125,279413.1875,681643.375,204817.453125,204933.40625,225844.625
550,290500.53125,275199.78125,310722.15625,279426.875,681647.5,204752.8125,204914.015625,225874.578125
551,290564.46875,274852.1875,310569.28125,279218.09375,681410.6875,204711.5,204714.359375,225677.4375
552,290660.40625,274637.78125,310434.53125,279015.5,681272.625,204733.578125,204567.015625,225490.9375
553,290680.34375,274760.4375,310447.78125,279024.09375,681319.9375,204771.140625,204592.765625,225497.109375
554,290727.375,275253.625,310768.75,279409.5,681622.1875,204931.890625,204935.46875,225882.453125
555,290664.96875,275250.125,310807.8125,279476.75,681690.4375,204904.53125,204980.34375,225975.703125
556,290564.03125,274781.8125,310519.125,279137.90625,681390.8125,204723.390625,204651.59375,225654.546875
557,290518.34375,274426.3125,310248.3125,278802.96875,681223.1875,204587.40625,204371.390625,225339.921875
558,290577.4375,274597.71875,310322.96875,278879.78125,681327.0,204674.3125,204482.34375,225424.421875
559,290640.09375,275020.15625,310571.6875,279167.125,681481.375,204780.078125,204718.390625,225679.046875
560,290586.0,274948.1875,310536.09375,279132.1875,681388.6875,204701.9375,204640.421875,225622.453125
561,290484.34375,274419.71875,310187.96875,278719.03125,681058.25,204464.203125,204215.03125,225176.671875
562,290432.84375,274068.15625,309917.15625,278386.78125,680842.3125,204336.4375,203942.25,224835.3125
563,290488.125,274244.125,309981.96875,278448.125,680961.375,204426.109375,204035.5,224879.75
564,290592.4375,274825.53125,310361.21875,278894.96875,681338.3125,204664.5625,204449.53125,225307.03125
565,290580.65625,274876.3125,310435.53125,278991.96875,681401.5625,204685.578125,204531.171875,225412.703125
566,290459.40625,274367.0625,310102.65625,278600.28125,681131.0625,204453.65625,204146.1875,225013.953125
567,290392.4375,273999.9375,309824.59375,278258.9375,680931.0625,204319.71875,203869.203125,224679.296875
568,290455.9375,274179.84375,309894.0,278325.375,681062.25,204405.640625,203964.328125,224732.578125
569,290507.25,274670.3125,310198.0625,278690.0625,681332.0625,204565.765625,204277.34375,225069.734375
570,290544.0,274736.125,310298.5625,278806.8125,681374.8125,204617.265625,204355.296875,225179.359375
571,290498.46875,274314.375,310058.84375,278515.8125,681177.25,204480.46875,204061.421875,224878.671875
572,290492.75,274010.3125,309835.6875,278221.90625,681001.0,204402.875,203810.375,224583.546875
573,290563.65625,274224.625,309925.09375,278311.15625,681118.5625,204506.3125,203908.171875,224659.546875
574,290631.625,274792.1875,310281.84375,278737.96875,681424.5,204703.8125,204275.546875,225068.125
575,290574.375,274844.84375,310346.65625,278837.75,681448.75,204689.859375,204341.359375,225175.59375
576,290459.40625,274422.65625,310084.6875,278542.625,681219.0625,204504.875,204047.5625,224883.6875
577,290398.71875,274075.125,309819.0625,278227.1875,681027.625,204361.03125,203769.328125,224572.28125
578,290456.1875,274258.6875,309901.84375,278322.9375,681146.8125,204454.453125,203871.703125,224657.390625
579,290547.125,274832.5,310294.8125,278797.625,681502.75,204684.671875,204303.984375,225116.671875
580,290503.75,274890.53125,310367.9375,278902.65625,681535.1875,204679.9375,204384.984375,225228.96875
581,290405.84375,274492.9375,310116.4375,278616.84375,681270.5625,204507.65625,204093.609375,224949.125
582,290359.53125,274168.375,309869.21875,278318.65625,681108.9375,204376.765625,203826.015625,224661.421875
583,290434.90625,274360.625,309959.15625,278415.84375,681214.6875,204476.359375,203936.515625,224752.796875
584,290518.25,274920.125,310331.46875,278859.5625,681535.8125,204679.3125,204347.34375,225190.703125
585,290477.375,274990.3125,310424.09375,278990.46875,681625.6875,204684.140625,204468.21875,225348.515625
586,290420.78125,274611.84375,310209.78125,278740.5625,681355.0625,204547.171875,204229.15625,225115.875
587,290374.65625,274270.03125,309956.9375,278432.65625,681170.0,204436.484375,203975.6875,224832.90625
588,290417.40625,274407.28125,310007.4375,278486.84375,681248.5625,204496.484375,204053.90625,224899.859375
589,290510.46875,274985.125,310398.96875,278960.59375,681621.0625,204724.90625,204493.34375,225376.140625
590,290488.90625,275049.5,310485.15625,279080.21875,681700.625,204731.96875,204588.484375,225516.5
591,290409.625,274658.0625,310249.375,278803.875,681402.0,204580.078125,204330.984375,225260.171875
592,290360.96875,274306.25,309995.71875,278494.53125,681204.25,204449.265625,204081.265625,224975.140625
593,290402.0,274435.0,310052.0625,278555.78125,681291.3125,204514.359375,204167.90625,225044.53125
594,290507.34375,275004.625,310430.34375,279001.28125,681623.875,204738.0625,204561.390625,225486.90625
595,290468.4375,275048.875,310498.75,279097.5625,681684.4375,204727.421875,204623.875,225606.984375
596,290387.25,274614.09375,310244.71875,278799.21875,681374.875,204550.484375,204322.578125,225326.609375
597,290333.53125,274205.3125,309939.59375,278419.875,681107.125,204370.328125,203977.734375,224951.71875
598,290397.53125,274371.78125,310009.40625,278492.5625,681202.875,204456.25,204060.796875,225016.0
599,290495.34375,274957.40625,310398.6875,278960.25,681552.9375,204684.046875,204476.0,225475.375
600,290436.0,275005.3125,310454.46875,279056.0,681600.125,204660.625,204537.34375,225591.609375
601,290334.34375,274584.5625,310200.46875,278771.78125,681316.875,204490.484375,204260.53125,225333.40625
602,290251.625,274180.28125,309892.5625,278398.0625,681074.0625,204319.09375,203937.859375,224984.890625
603,290382.4375,274402.46875,310024.78125,278533.40625,681226.875,204463.125,204098.96875,225121.6875
604,290510.28125,275020.0,310451.09375,279037.65625,681630.6875,204722.40625,204571.21875,225624.953125
605,290481.21875,275084.90625,310530.21875,279149.53125,681702.875,204725.53125,204659.46875,225761.21875
606,290426.4375,274730.3125,310335.5625,278924.84375,681450.25,204629.78125,204454.1875,225568.984375
607,290403.09375,274418.46875,310109.28125,278644.46875,681262.5,204547.625,204233.625,225322.40625
608,290448.6875,274550.15625,310149.5,278692.375,681337.1875,204605.28125,204296.03125,225369.25
609,290505.46875,275075.78125,310491.6875,279107.21875,681660.75,204775.25,204676.359375,225790.453125
610,290447.4375,275114.9375,310556.40625,279201.09375,681739.6875,204747.171875,204759.78125,225918.84375
611,290345.15625,274683.375,310287.75,278894.09375,681425.0625,204558.796875,204465.984375,225630.671875
612,290301.6875,274295.15625,310006.46875,278552.46875,681189.9375,204417.703125,204168.625,225299.25
613,290336.125,274394.59375,310029.09375,278576.78125,681232.75,204455.703125,204199.640625,225317.390625
614,290370.1875,274876.9375,310316.25,278924.21875,681443.5625,204593.21875,204484.671875,225645.875
615,290329.5,274941.03125,310404.59375,279055.65625,681532.25,204599.296875,204586.875,225799.65625
616,290268.34375,274553.90625,310181.96875,278802.53125,681295.75,204442.03125,204336.53125,225564.421875
617,290308.125,274305.4375,310014.34375,278577.9375,681223.8125,204413.234375,204173.890625,225369.15625
618,290388.96875,274539.15625,310152.46875,278738.25,681375.625,204567.90625,204377.203125,225554.6875
619,290443.0625,275082.75,310506.4375,279174.28125,681738.4375,204749.140625,204772.296875,226001.8125
620,290410.34375,275161.25,310588.59375,279288.90625,681845.625,204753.25,204846.6875,226147.546875
621,290372.96875,274847.25,310437.65625,279113.9375,681672.4375,204679.765625,204676.359375,226016.65625
622,290344.0625,274528.53125,310233.8125,278861.1875,681446.625,204587.765625,204485.65625,225812.796875
623,290362.9375,274545.6875,310188.0625,278786.53125,681326.6875,204546.359375,204409.578125,225730.90625
624,290393.0625,274895.34375,310359.71875,278981.4375,681334.9375,204558.34375,204503.8125,225861.96875
625,290388.34375,274984.125,310443.9375,279092.375,681350.3125,204581.328125,204557.90625,225946.90625
626,290327.53125,274666.21875,310280.0625,278912.78125,681210.8125,204500.953125,204386.328125,225770.59375
627,290250.1875,274297.3125,310014.6875,278603.96875,681077.6875,204360.75,204135.09375,225473.5
628,290176.4375,274306.0625,309950.9375,278555.15625,681100.75,204302.90625,204106.84375,225420.578125
629,290211.75,274850.375,310304.1875,278991.4375,681483.8125,204497.28125,204506.671875,225864.296875
630,290232.5,275001.5625,310468.0625,279197.8125,681687.75,204592.328125,204682.4375,226108.46875
631,290385.28125,274872.03125,310503.03125,279204.875,681701.875,204707.828125,204703.09375,226163.09375
632,290355.625,274551.3125,310279.96875,278923.0625,681454.5,204631.65625,204479.671875,225931.0
633,290325.21875,274564.28125,310210.5,278839.28125,681362.1875,204579.171875,204400.546875,225856.15625
634,290487.5625,275160.34375,310629.625,279326.71875,681758.875,204809.046875,204830.234375,226338.515625
635,290565.625,275346.5,310833.125,279566.59375,681993.6875,204919.015625,205035.6875,226611.203125
636,290454.6875,274898.84375,310567.75,279264.9375,681677.1875,204730.640625,204731.796875,226343.34375
637,290331.375,274427.21875,310211.75,278849.46875,681323.9375,204508.71875,204346.453125,225949.59375
638,290369.65625,274538.875,310244.09375,278880.5,681372.125,204571.9375,204384.265625,225994.03125
639,290441.71875,275075.4375,310588.6875,279287.65625,681694.1875,204773.109375,204746.015625,226414.515625
640,290397.375,275145.0625,310668.625,279406.5625,681810.5,204774.265625,204835.515625,226565.421875
641,290325.5625,274786.1875,310468.6875,279180.375,681596.875,204660.984375,204631.65625,226375.625
642,290265.5,274363.03125,310152.1875,278792.0625,681299.5625,204489.6875,204308.359375,226007.34375
643,290318.40625,274420.78125,310132.78125,278752.46875,681292.4375,204494.59375,204293.25,225948.25
644,290421.40625,274976.34375,310487.375,279165.875,681578.5625,204698.0,204662.15625,226332.875
645,290400.59375,275090.0,310601.71875,279318.78125,681690.625,204738.0625,204790.625,226497.921875
646,290310.09375,274699.5625,310369.28125,279057.15625,681419.1875,204580.25,204537.6875,226246.6875
647,290227.3125,274317.53125,310090.25,278716.34375,681219.875,204445.875,204259.28125,225935.109375
648,290265.5,274417.21875,310116.78125,278731.90625,681285.3125,204497.734375,204300.765625,225960.5
649,290341.21875,274961.0625,310464.75,279143.25,681616.6875,204690.9375,204670.375,226369.71875
650,290320.28125,275053.0625,310560.25,279265.46875,681734.4375,204702.828125,204768.1875,226512.671875
651,290269.6875,274674.15625,310339.0625,278996.8125,681448.375,204562.1875,204504.078125,226247.9375
652,290312.15625,274398.625,310161.21875,278754.25,681298.375,204522.140625,204315.34375,226019.859375
653,290396.28125,274550.4375,310236.59375,278822.75,681385.625,204624.328125,204418.6875,226098.453125
654,290462.90625,275095.625,310590.75,279251.09375,681722.9375,204826.125,204803.140625,226526.265625
655,290454.125,275176.71875,310685.78125,279374.375,681827.375,204835.6875,204884.5,226671.46875
656,290367.0625,274761.875,310431.0625,279077.375,681511.25,204663.765625,204575.25,226388.84375
657,290260.125,274324.65625,310100.875,278688.34375,681238.9375,204461.078125,204230.9375,226025.328125
658,290311.96875,274429.90625,310125.8125,278708.5625,681287.3125,204499.0625,204266.078125,226044.546875
659,290392.71875,274964.46875,310458.5,279102.3125,681558.8125,204682.890625,204609.9375,226426.21875
660,290384.9375,275102.4375,310606.84375,279298.28125,681748.6875,204754.421875,204797.515625,226648.84375
661,290318.875,274714.40625,310380.1875,279033.125,681480.375,204609.390625,204552.71875,226398.78125
662,290279.34375,274318.3125,310083.875,278662.59375,681224.5,204467.328125,204232.546875,226033.1875
663,290308.125,274397.1875,310078.625,278651.4375,681239.6875,204475.109375,204228.4375,226006.015625
664,290356.15625,274897.21875,310384.28125,279024.15625,681484.9375,204621.5625,204538.5,226353.53125
665,290347.21875,274999.5,310492.46875,279169.46875,681585.8125,204643.90625,204643.46875,226502.390625
666,290227.03125,274574.65625,310226.9375,278870.46875,681310.5,204458.65625,204345.734375,226207.0
667,290195.3125,274258.6875,310011.03125,278600.03125,681214.875,204378.453125,204145.46875,225962.734375
668,290216.75,274356.40625,310032.21875,278624.4375,681290.25,204415.390625,204199.828125,225990.09375
669,290300.71875,274916.1875,310390.71875,279054.9375,681618.375,204623.609375,204582.84375,226404.3125
670,290304.1875,275043.9375,310509.1875,279202.0,681736.3125,204655.796875,204692.71875,226563.734375
671,290341.40625,274771.96875,310397.15625,279055.46875,681550.5,204623.796875,204535.734375,226427.03125
672,290390.46875,274502.0625,310235.0,278835.15625,681351.375,204627.546875,204353.15625,226221.65625
673,290427.21875,274611.125,310272.4375,278878.09375,681376.75,204683.15625,204410.5625,226262.78125
674,290433.5625,275119.3125,310576.0625,279255.1875,681681.8125,204813.421875,204754.859375,226645.71875
675,290407.8125,275267.1875,310715.46875,279437.15625,681887.375,204865.453125,204923.84375,226867.0
676,290301.25,274821.15625,310449.46875,279133.34375,681580.0625,204675.921875,204623.4375,226579.46875
677,290233.21875,274388.15625,310135.84375,278750.0625,681274.3125,204494.6875,204285.65625,226205.390625
678,290280.5,274471.9375,310151.84375,278756.125,681308.375,204531.171875,204305.0625,226200.46875
679,290348.90625,274987.71875,310479.6875,279151.9375,681592.5,204705.953125,204649.09375,226575.796875
680,290315.46875,275062.0,310551.84375,279249.5625,681659.75,204695.859375,204713.296875,226686.03125
681,290227.21875,274633.125,310282.375,278932.625,681335.5625,204508.375,204387.40625,226368.546875
682,290179.3125,274264.0625,310010.3125,278602.71875,681147.8125,204378.1875,204103.09375,226045.890625
683,290233.75,274401.375,310059.03125,278655.71875,681244.0,204456.15625,204190.703125,226097.03125
684,290280.6875,274943.28125,310397.71875,279066.375,681567.9375,204644.53125,204575.0625,226505.796875
685,290185.90625,274989.3125,310440.96875,279147.65625,681641.6875,204615.75,204644.171875,226612.640625
686,290124.75,274625.625,310242.3125,278915.71875,681415.25,204491.5625,204441.84375,226407.53125
687,290140.6875,274322.53125,310038.65625,278649.71875,681257.3125,204423.796875,204241.125,226171.59375
688,290256.71875,274476.84375,310119.65625,278718.03125,681347.1875,204540.015625,204334.5625,226240.171875
689,290426.6875,275112.71875,310574.71875,279243.75,681787.5,204854.546875,204824.25,226761.40625
690,290453.5,275263.0,310733.96875,279443.03125,681985.3125,204928.765625,204993.765625,226978.484375
691,290328.875,274786.0,310431.59375,279094.71875,681621.5,204706.9375,204651.421875,226649.03125
692,290270.21875,274384.03125,310136.90625,278731.90625,681324.375,204565.953125,204340.546875,226302.65625
693,290276.03125,274496.96875,310176.78125,278780.09375,681417.8125,204638.09375,204428.171875,226375.890625
694,290334.25,275033.84375,310539.5,279221.03125,681808.4375,204832.5625,204832.921875,226831.859375
695,290307.96875,275080.15625,310604.59375,279305.90625,681896.6875,204810.75,204881.375,226938.796875
696,290202.625,274530.65625,310229.96875,278856.25,681437.9375,204518.65625,204397.6875,226467.265625
697,290116.0,274042.59375,309845.34375,278387.875,681064.1875,204285.828125,203944.484375,225961.75
698,290164.0,274116.71875,309843.65625,278371.15625,681078.9375,204331.515625,203949.21875,225909.359375
699,290276.84375,274710.65625,310237.21875,278840.53125,681434.8125,204597.0625,204384.71875,226342.984375
700,290220.53125,274835.90625,310354.6875,279008.15625,681572.375,204650.96875,204557.28125,226532.609375
701,290076.75,274397.71875,310073.59375,278698.625,681301.5625,204459.640625,204268.578125,226240.609375
702,289965.4375,273973.03125,309741.90625,278313.65625,681086.625,204278.953125,203936.078125,225869.578125
703,290078.53125,274159.09375,309839.90625,278410.3125,681236.5625,204408.6875,204064.640625,225966.40625
704,290381.0,274949.53125,310419.875,279057.78125,681788.25,204853.390625,204671.0,226600.75
705,290429.0,275136.03125,310609.875,279288.09375,682007.75,204947.09375,204884.5,226851.359375
706,290225.0625,274614.09375,310258.59375,278905.09375,681606.0,204641.046875,204518.734375,226488.359375
707,290160.96875,274225.875,309974.625,278567.375,681301.5625,204501.65625,204227.546875,226160.234375
708,290199.96875,274312.78125,309978.75,278553.09375,681323.9375,204544.75,204247.921875,226152.1875
709,290319.3125,274899.28125,310371.96875,279010.03125,681677.8125,204791.15625,204658.21875,226599.40625
710,290292.59375,275014.625,310492.9375,279173.21875,681823.0,204836.671875,204790.53125,226780.453125
711,290184.75,274574.75,310224.15625,278867.8125,681505.625,204647.125,204483.515625,226483.984375
712,290137.625,274218.8125,309959.25,278542.625,681289.3125,204520.625,204210.203125,226171.859375
713,290197.375,274379.125,310018.96875,278601.8125,681358.875,204615.390625,204299.421875,226234.09375
714,290263.53125,274846.71875,310310.28125,278946.46875,681583.75,204743.6875,204587.046875,226550.671875
715,290220.0625,274872.5625,310355.25,279014.34375,681584.375,204709.625,204599.03125,226603.609375
716,290099.46875,274416.5,310083.96875,278710.25,681302.3125,204510.96875,204294.15625,226303.46875
717,290046.71875,274037.0625,309805.21875,278372.5625,681122.4375,204349.140625,204008.40625,225968.640625
718,290124.75,274214.96875,309881.90625,278452.875,681241.6875,204452.21875,204106.484375,226036.40625
719,290227.21875,274825.8125,310279.96875,278931.375,681624.4375,204715.609375,204533.484375,226499.359375
720,290169.8125,274895.90625,310355.40625,279039.28125,681723.4375,204720.890625,204623.796875,226633.109375
721,290092.03125,274434.46875,310096.21875,278737.53125,681420.5,204553.25,204337.6875,226339.859375
722,290040.8125,274068.25,309820.125,278401.71875,681202.4375,204406.171875,204055.609375,225999.921875
723,290149.96875,274283.1875,309933.25,278510.15625,681314.375,204542.515625,204200.71875,226108.5625
724,290245.375,274865.5,310302.40625,278941.03125,681640.25,204757.28125,204582.75,226525.203125
725,290192.4375,274926.65625,310366.5,279033.65625,681699.5625,204740.5625,204626.03125,226621.125
726,290111.0,274494.0,310119.65625,278741.8125,681408.4375,204592.046875,204341.984375,226341.375
727,290068.15625,274142.375,309877.34375,278446.25,681252.3125,204482.984375,204109.171875,226061.171875
728,290176.09375,274358.8125,309994.65625,278563.28125,681393.0625,204610.46875,204257.21875,226184.5625
729,290344.78125,275024.90625,310463.78125,279103.84375,681859.3125,204941.90625,204762.015625,226726.265625
730,290296.4375,275100.09375,310569.625,279252.25,682029.25,204962.28125,204891.296875,226905.4375
731,290179.125,274571.15625,310246.53125,278883.25,681659.3125,204709.53125,204506.046875,226530.296875
732,290058.59375,274024.25,309796.09375,278334.3125,681179.1875,204388.46875,203964.5,225942.171875
733,290101.59375,274138.53125,309807.25,278331.53125,681202.375,204429.953125,203976.84375,225910.25
734,290221.21875,274713.5,310192.0625,278781.78125,681528.25,204670.375,204376.671875,226327.15625
735,290201.90625,274813.1875,310300.53125,278928.59375,681615.25,204713.296875,204484.671875,226467.265625
736,290092.3125,274338.96875,310006.5625,278593.125,681295.125,204504.4375,204148.328125,226120.8125
737,290051.28125,274046.96875,309776.0625,278313.75,681169.8125,204399.828125,203930.0,225844.453125
738,290087.125,274210.0625,309833.71875,278380.34375,681264.375,204482.890625,204043.09375,225915.890625
739,290143.4375,274772.875,310193.40625,278815.5,681620.5625,204693.796875,204470.453125,226356.9375
740,290032.59375,274785.46875,310223.09375,278892.46875,681692.75,204630.046875,204537.78125,226453.578125
741,289972.25,274324.125,309961.9375,278591.34375,681382.3125,204455.078125,204236.75,226148.078125
742,290024.1875,274027.125,309766.40625,278327.0625,681225.6875,204391.609375,204012.34375,225875.828125
743,290208.53125,274304.8125,309950.9375,278503.03125,681374.375,204600.546875,204220.390625,226054.921875
744,290353.375,274953.5625,310398.875,279006.375,681799.875,204917.140625,204694.6875,226567.390625
745,290266.84375,274973.9375,310435.34375,279070.46875,681850.8125,204878.953125,204724.46875,226655.109375
746,290149.25,274506.09375,310157.125,278753.8125,681518.375,204695.3125,204405.109375,226356.84375
747,290098.46875,274196.71875,309935.46875,278480.5625,681329.8125,204620.390625,204196.15625,226112.84375
748,290171.625,274430.09375,310068.15625,278641.40625,681481.3125,204787.5,204408.765625,226302.21875
749,290194.84375,274906.0,310363.65625,279006.1875,681803.25,204929.5625,204746.015625,226673.796875
750,290114.21875,274801.125,310298.90625,278947.375,681715.4375,204767.015625,204631.125,226599.046875
751,289991.375,274109.5625,309800.28125,278348.875,681096.875,204331.875,203949.21875,225909.625
752,289958.5625,273835.09375,309582.6875,278076.46875,680923.8125,204256.953125,203713.71875,225619.234375
753,290015.96875,274066.375,309714.46875,278237.75,681142.875,204424.953125,203926.15625,225790.0
754,290112.34375,274639.84375,310113.75,278721.34375,681539.75,204676.625,204388.46875,226270.125
755,290082.375,274739.6875,310222.125,278872.90625,681665.8125,204702.109375,204532.59375,226440.703125
756,289969.71875,274277.46875,309941.65625,278559.4375,681352.8125,204506.484375,204235.59375,226137.171875
757,289885.59375,273937.1875,309673.6875,278244.0,681170.875,204372.203125,203985.875,225841.40625
758,289955.25,274121.4375,309765.5,278351.125,681312.5625,204478.953125,204138.046875,225963.09375
759,290098.9375,274746.3125,310189.5625,278847.875,681726.8125,204751.109375,204602.875,226462.34375
760,290164.90625,274962.78125,310405.9375,279107.84375,682001.1875,204888.078125,204844.890625,226755.859375
761,290128.25,274580.71875,310206.09375,278875.21875,681755.625,204770.6875,204610.46875,226543.609375
762,290075.84375,274222.9375,309932.625,278540.125,681381.25,204628.703125,204310.328125,226223.625
763,290091.15625,274342.5625,309947.53125,278552.71875,681350.875,204667.25,204328.125,226232.5625
764,290187.0,274915.125,310351.21875,279038.125,681774.5625,204914.453125,204770.421875,226726.71875
765,290230.875,275161.96875,310596.5625,279334.6875,682114.5625,205080.75,205050.796875,227072.015625
766,290149.25,274747.125,310392.96875,279111.0625,681921.8125,204939.9375,204831.75,226887.921875
767,290097.9375,274417.03125,310155.875,278830.96875,681638.5625,204812.53125,204587.84375,226633.5625
768,290051.28125,274333.15625,309988.40625,278622.03125,681367.125,204646.5,204376.671875,226398.953125
769,290129.78125,274848.5,310293.1875,278965.53125,681607.4375,204794.5625,204655.359375,226707.859375
770,290104.75,274988.875,310450.71875,279175.90625,681806.375,204854.734375,204827.28125,226929.578125
771,290009.78125,274523.59375,310188.3125,278879.875,681480.75,204669.125,204522.234375,226632.9375
772,289970.71875,274207.90625,309956.46875,278592.875,681248.9375,204581.0625,204299.6875,226359.171875
773,290017.46875,274363.375,310025.25,278669.21875,681340.0625,204683.34375,204440.328125,226455.28125
774,290117.53125,274942.03125,310406.46875,279122.34375,681731.1875,204910.796875,204881.109375,226906.6875
775,290094.625,275091.34375,310548.28125,279313.9375,681949.9375,204950.578125,205068.859375,227121.453125
776,290017.5625,274689.8125,310333.96875,279080.84375,681720.5625,204803.5,204847.75,226900.53125
777,289958.28125,274351.125,310085.84375,278787.25,681396.1875,204684.234375,204607.78125,226627.203125
778,290026.6875,274512.15625,310154.875,278842.6875,681421.8125,204783.03125,204716.234375,226719.03125
779,290125.125,275100.46875,310553.28125,279310.53125,681877.625,205012.796875,205142.0,227194.3125
780,290104.75,275206.3125,310673.25,279469.875,682073.25,205031.578125,205253.046875,227374.203125
781,290051.375,274795.03125,310445.1875,279204.5,681804.6875,204886.203125,204964.34375,227113.046875
782,290005.84375,274446.34375,310209.6875,278926.375,681492.3125,204780.34375,204722.9375,226845.890625
783,290077.1875,274635.09375,310311.53125,279033.125,681578.5625,204887.8125,204879.9375,226983.40625
784,290163.125,275187.28125,310672.375,279474.78125,681992.375,205069.671875,205261.53125,227412.375
785,290081.03125,275250.5625,310730.3125,279583.84375,682113.9375,205032.65625,205307.75,227522.4375
786,290019.4375,274859.59375,310505.1875,279318.6875,681861.125,204885.578125,205029.703125,227275.59375
787,289986.1875,274605.15625,310336.65625,279113.40625,681677.8125,204830.234375,204873.5,227112.875
788,290029.71875,274777.4375,310403.875,279182.34375,681733.6875,204894.515625,204969.984375,227212.015625
789,290124.21875,275392.375,310802.09375,279662.53125,682211.3125,205112.21875,205391.703125,227694.015625
790,290102.3125,275502.15625,310926.0,279845.28125,682430.875,205116.34375,205511.6875,227887.484375
791,290052.4375,275202.03125,310776.0625,279687.125,682300.875,204996.625,205327.96875,227742.828125
792,290015.25,274987.96875,310616.21875,279503.5625,682136.1875,204931.53125,205182.140625,227596.921875
793,290079.25,275281.25,310781.25,279714.3125,682360.0,205067.34375,205404.40625,227839.03125
794,290202.28125,276017.15625,311294.46875,280348.90625,683033.875,205333.5,205959.171875,228484.015625
795,290225.0,276344.09375,311578.3125,280714.59375,683542.6875,205446.78125,206278.1875,228907.71875
796,290083.46875,276018.125,311457.34375,280625.0,683627.3125,205346.734375,206193.421875,228910.03125
797,290074.34375,275865.15625,311375.1875,280547.125,683694.8125,205295.0625,206148.625,228918.53125
798,290166.59375,276215.625,311591.65625,280817.9375,684107.0625,205453.578125,206436.96875,229261.40625
799,290235.625,276827.71875,312055.21875,281395.4375,684885.9375,205700.703125,206985.03125,229920.96875
800,290221.15625,277001.4375,312242.25,281645.9375,685374.6875,205710.625,207200.328125,230253.90625
801,290120.75,276616.0,312069.53125,281493.15625,685426.8125,205548.53125,207026.15625,230160.484375
802,290061.65625,276311.125,311886.875,281285.90625,685455.0,205443.03125,206881.671875,230066.421875
803,290157.21875,276541.96875,312019.90625,281420.625,685790.8125,205528.40625,207043.140625,230291.734375
804,290288.28125,277282.0625,312534.09375,282037.71875,686613.6875,205835.96875,207585.9375,230958.171875
805,290214.09375,277236.5625,312636.625,282222.34375,687118.6875,205830.34375,207749.8125,231256.078125
806,290063.59375,276610.71875,312257.09375,281777.5625,686941.5,205511.15625,207321.015625,230904.171875
807,289999.0625,276091.09375,311895.625,281332.5625,686677.1875,205280.484375,206915.296875,230514.0
808,290020.5,276114.5,311874.71875,281285.625,686780.6875,205305.15625,206905.453125,230517.84375
809,290060.9375,276591.125,312176.1875,281624.5625,687314.125,205485.9375,207234.125,230917.3125
810,290048.40625,276581.84375,312228.5,281710.59375,687601.375,205465.203125,207269.609375,231036.21875
811,290003.4375,276073.21875,311914.9375,281336.40625,687383.6875,205278.703125,206872.375,230675.921875
812,290024.28125,275725.3125,311650.65625,280967.78125,687163.625,205180.171875,206570.265625,230355.65625
813,290070.75,275863.53125,311676.3125,280955.09375,687262.875,205300.0625,206614.265625,230380.328125
814,290121.375,276136.78125,311908.6875,281247.09375,687687.9375,205439.71875,206890.4375,230685.578125
815,290119.5,276072.5625,311919.875,281266.6875,687847.8125,205411.640625,206870.234375,230705.15625
816,290002.53125,275483.375,311525.3125,280783.15625,687470.0625,205149.328125,206392.359375,230219.84375
817,289917.25,275031.625,311141.3125,280280.0625,687027.125,204982.5,205960.0625,229722.125
818,289946.5625,274980.65625,311058.4375,280160.625,686922.0625,204982.40625,205889.171875,229585.59375
819,290037.0625,275381.8125,311305.53125,280436.71875,687225.8125,205151.109375,206137.453125,229826.09375
820,290009.25,275425.71875,311308.59375,280425.09375,687291.3125,205157.546875,206109.015625,229798.65625
821,289900.96875,274806.75,310897.125,279923.96875,686823.125,204895.859375,205618.890625,229267.578125
822,289892.65625,274306.25,310499.625,279413.0,686245.25,204689.59375,205132.609375,228688.3125
823,289937.0,274210.15625,310377.40625,279246.4375,685956.3125,204691.296875,204981.59375,228440.296875
824,289938.4375,274574.75,310557.75,279428.75,686098.5625,204832.375,205169.53125,228585.578125
825,289931.5625,274614.71875,310559.25,279403.4375,686019.875,204834.171875,205107.484375,228489.90625
826,289786.625,273912.40625,310075.40625,278821.21875,685331.875,204531.703125,204523.75,227828.921875
827,289801.75,273415.9375,309682.4375,278300.5,684645.125,204353.96875,204054.8125,227232.765625
828,289832.75,273493.0,309613.53125,278183.21875,684337.6875,204419.046875,203985.15625,227036.96875
829,289997.8125,273941.125,309856.15625,278429.34375,684382.0,204593.65625,204183.46875,227163.5625
830,289903.125,273890.34375,309821.375,278386.15625,684239.875,204574.0,204150.46875,227067.71875
831,289923.34375,273472.34375,309477.34375,277935.90625,683574.125,204375.0625,203677.6875,226491.3125
832,289751.5,272905.34375,309028.0,277401.625,682821.4375,204170.765625,203207.59375,225876.375
833,289760.96875,272771.9375,308885.75,277189.90625,682368.3125,204177.921875,203059.890625,225589.90625
834,289878.8125,273162.375,309117.40625,277440.9375,682327.625,204373.1875,203251.03125,225703.640625
835,289902.3125,273260.46875,309125.0,277420.5625,682062.8125,204353.78125,203186.390625,225565.234375
836,289805.59375,272834.15625,308784.8125,277011.53125,681457.0,204175.953125,202771.546875,225040.328125
837,289780.1875,272366.375,308477.5,276630.9375,681023.375,204057.21875,202436.546875,224569.59375
838,289702.84375,272356.09375,308379.875,276480.0,680846.6875,204074.828125,202371.265625,224384.609375
839,289841.25,272957.5625,308708.625,276805.625,681114.75,204291.28125,202694.484375,224644.34375
840,290045.5625,273208.6875,308931.96875,277053.375,681233.25,204432.90625,202856.9375,224765.578125
841,290023.8125,272908.65625,308697.8125,276778.90625,680906.9375,204279.125,202542.046875,224377.640625
842,289828.65625,272582.75,308354.3125,276395.25,680436.75,204094.421875,202169.84375,223899.140625
843,289733.96875,272613.0625,308346.1875,276417.0625,680450.0625,204158.875,202269.265625,223904.5
844,289937.0,273222.65625,308761.90625,276909.4375,680861.375,204387.046875,202666.765625,224280.90625
845,289916.8125,273455.8125,308874.84375,277021.375,681006.4375,204398.9375,202749.46875,224357.4375
846,289761.21875,273038.5625,308597.6875,276716.21875,680730.75,204189.625,202450.3125,224028.0625
847,289670.40625,272683.6875,308304.59375,276356.34375,680372.375,204035.3125,202156.25,223649.6875
848,289741.125,272825.9375,308379.34375,276436.8125,680410.3125,204138.140625,202268.71875,223685.359375
849,289928.0625,273477.28125,308806.625,276943.125,680826.6875,204365.3125,202678.03125,224086.265625
850,289891.9375,273757.375,309023.4375,277228.78125,681126.6875,204482.171875,202949.203125,224359.9375
851,289749.96875,273303.28125,308776.9375,276995.78125,680957.0,204287.0,202713.875,224100.75
852,289667.71875,273075.125,308582.03125,276754.84375,680801.0,204248.109375,202558.9375,223884.203125
853,289594.21875,273101.6875,308550.1875,276723.5625,680837.8125,204260.890625,202606.859375,223888.9375
854,289692.375,273664.3125,308921.78125,277177.03125,681192.0,204431.296875,202999.265625,224306.921875
855,289714.28125,273801.5625,309073.15625,277394.625,681248.5,204431.203125,203128.28125,224477.15625
856,289595.75,273439.28125,308818.25,277092.875,681020.25,204244.703125,202833.859375,224177.1875
857,289508.5625,273056.0,308560.9375,276773.15625,680831.75,204118.28125,202608.5625,223903.0625
858,289539.9375,273170.53125,308598.84375,276812.0625,680892.125,204162.984375,202682.046875,223940.265625
859,289731.46875,273879.5,309062.78125,277335.625,681296.5625,204477.25,203172.359375,224451.9375
860,289658.25,273990.75,309165.84375,277487.625,681346.5625,204477.078125,203292.25,224612.78125
861,289466.71875,273518.125,308913.5625,277265.96875,681152.625,204303.984375,203052.46875,224387.03125
862,289477.0,273187.59375,308654.90625,276934.375,680931.25,204177.46875,202766.09375,224067.484375
863,289517.0625,273291.21875,308701.84375,276989.625,681028.5625,204246.5,202863.09375,224128.640625
864,289589.5625,273848.75,309089.6875,277463.46875,681421.6875,204435.859375,203304.859375,224611.4375
865,289610.59375,273954.625,309261.875,277712.40625,681559.1875,204477.34375,203468.203125,224841.296875
866,289445.8125,273578.5625,308969.4375,277386.15625,681246.25,204269.734375,203125.6875,224520.515625
867,289435.96875,273201.8125,308690.9375,277051.75,680974.0,204122.671875,202811.15625,224165.203125
868,289410.84375,273086.5625,308585.78125,276943.84375,680843.5625,204042.921875,202707.4375,224018.9375
869,289544.25,273822.28125,309064.90625,277518.46875,681298.1875,204400.8125,203247.734375,224571.46875
870,289523.78125,274000.46875,309210.75,277684.21875,681440.4375,204461.515625,203446.84375,224807.15625
871,289485.875,273672.34375,309016.8125,277447.03125,681220.25,204331.34375,203233.609375,224597.3125
872,289430.59375,273291.3125,308767.28125,277179.34375,681062.0625,204201.609375,202994.171875,224327.296875
873,289517.96875,273377.75,308845.5,277305.84375,681167.0,204309.265625,203112.8125,224428.15625
874,289559.71875,273924.03125,309169.0,277676.53125,681421.8125,204448.015625,203446.921875,224805.71875
875,289669.15625,274209.0625,309362.5625,277877.875,681539.4375,204534.921875,203589.171875,225006.4375
876,289583.3125,273857.625,309227.8125,277758.4375,681355.25,204523.296875,203445.765625,224884.84375
877,289452.5,273442.03125,308927.6875,277384.53125,681131.625,204339.921875,203187.375,224601.609375
878,289605.125,273492.75,309004.75,277503.53125,681204.375,204401.4375,203267.75,224667.234375
879,289769.46875,274181.25,309436.3125,277964.4375,681587.3125,204697.375,203726.421875,225165.40625
880,289735.40625,274362.21875,309595.625,278166.125,681763.1875,204757.28125,203899.234375,225401.34375
881,289588.78125,273867.0,309284.3125,277808.875,681378.3125,204556.375,203535.078125,225063.65625
882,289451.34375,273489.96875,308971.84375,277468.84375,681128.6875,204335.1875,203217.421875,224725.796875
883,289469.78125,273505.0,308934.65625,277422.96875,681140.0,204310.515625,203206.515625,224691.640625
884,289598.15625,274065.65625,309345.5625,277906.0625,681527.6875,204587.765625,203666.0625,225184.71875
885,289664.59375,274192.09375,309539.84375,278178.90625,681719.625,204646.0625,203860.53125,225437.109375
886,289571.15625,273813.34375,309253.46875,277849.4375,681303.8125,204410.640625,203461.953125,225053.5625
887,289451.4375,273333.9375,308865.28125,277363.53125,680954.125,204161.828125,203059.703125,224603.484375
888,289562.5625,273497.5625,308966.46875,277466.875,681073.9375,204326.96875,203191.84375,224692.984375
889,289572.59375,274081.65625,309373.1875,277978.65625,681511.9375,204608.234375,203692.703125,225215.734375
890,289592.96875,274276.125,309543.15625,278177.5625,681690.5,204655.625,203880.015625,225450.703125
891,289500.875,273861.28125,309285.84375,277897.5625,681366.25,204502.375,203590.0625,225164.78125
892,289389.375,273403.6875,308990.25,277564.96875,681129.5,204314.265625,203311.203125,224854.359375
893,289427.65625,273483.8125,308997.9375,277540.71875,681189.8125,204349.84375,203357.34375,224875.28125
894,289752.03125,274222.21875,309504.8125,278077.8125,681585.4375,204668.9375,203824.140625,225383.640625
895,289722.4375,274445.09375,309709.4375,278330.71875,681820.125,204801.984375,204062.140625,225676.546875
896,289579.03125,273967.125,309422.09375,278031.9375,681464.5625,204593.9375,203743.578125,225371.125
897,289511.4375,273658.40625,309136.1875,277672.25,681144.6875,204433.796875,203429.578125,225025.75
898,289571.15625,273668.0625,309153.96875,277675.75,681203.5,204490.390625,203485.109375,225056.953125
899,289714.90625,274294.71875,309572.40625,278170.6875,681571.25,204734.203125,203906.75,225519.359375
900,289682.46875,274447.0625,309723.75,278372.84375,681736.375,204785.171875,204055.875,225732.421875
901,289479.59375,273931.0,309444.625,278092.71875,681467.0,204589.453125,203790.96875,225493.53125
902,289401.625,273473.6875,309134.65625,277728.125,681204.5625,204391.609375,203472.234375,225156.546875
903,289511.25,273606.03125,309141.09375,277672.6875,681202.1875,204419.9375,203455.328125,225126.421875
904,289584.21875,274224.90625,309465.625,278041.3125,681435.9375,204607.15625,203769.78125,225463.9375
905,289510.96875,274284.71875,309546.46875,278177.84375,681513.75,204618.078125,203865.984375,225596.96875
906,289355.6875,273643.75,309223.25,277853.28125,681182.5625,204371.671875,203530.53125,225257.21875
907,289330.125,273276.09375,308962.28125,277524.09375,681024.5,204233.171875,203281.96875,224961.203125
908,289373.84375,273484.15625,308979.53125,277496.84375,681059.1875,204303.984375,203313.796875,224952.53125
909,289425.96875,274018.53125,309362.28125,277980.78125,681452.875,204534.296875,203763.96875,225435.328125
910,289350.9375,274095.625,309465.375,278166.03125,681593.0625,204526.15625,203885.65625,225613.953125
911,289370.4375,273832.03125,309322.78125,277987.0625,681351.5625,204458.03125,203675.09375,225423.25
912,289354.875,273456.25,309102.1875,277703.71875,681145.1875,204374.96875,203457.296875,225174.34375
913,289499.28125,273657.875,309178.09375,277730.625,681240.0,204516.5,203545.8125,225234.515625
914,289721.4375,274307.25,309624.96875,278230.6875,681631.3125,204806.890625,204006.34375,225727.859375
915,289678.25,274431.25,309781.15625,278486.21875,681803.25,204834.609375,204167.90625,225949.59375
916,289424.53125,273886.75,309433.0,278093.96875,681429.0625,204625.21875,203813.40625,225606.09375
917,289408.0625,273576.34375,309146.46875,277715.34375,681139.375,204471.171875,203495.75,225252.125
918,289456.1875,273683.53125,309207.25,277815.9375,681221.3125,204536.984375,203610.359375,225339.03125
919,289496.15625,274222.375,309573.28125,278267.53125,681619.6875,204769.703125,204042.203125,225805.109375
920,289447.875,274349.0,309657.40625,278365.875,681770.875,204724.640625,204143.234375,225966.9375
921,289331.625,273796.46875,309334.46875,278005.75,681390.125,204481.8125,203748.671875,225597.78125
922,289175.53125,273255.28125,308926.875,277549.40625,681000.375,204222.796875,203283.140625,225102.109375
923,289297.125,273393.6875,308971.21875,277565.5,681064.1875,204287.171875,203324.703125,225107.296875
924,289377.84375,273902.21875,309321.96875,277984.53125,681374.5625,204494.234375,203708.890625,225501.3125
925,289436.78125,274143.96875,309530.5625,278244.71875,681566.75,204606.8125,203924.09375,225747.796875
926,289390.8125,273802.53125,309326.53125,278052.3125,681290.125,204464.828125,203674.203125,225494.515625
927,289223.1875,273419.59375,309007.4375,277643.1875,681078.5,204315.078125,203390.25,225160.21875
928,289261.28125,273425.3125,309005.09375,277633.1875,681126.625,204368.53125,203435.21875,225167.109375
929,289422.84375,274045.625,309388.21875,278083.96875,681436.4375,204546.1875,203813.3125,225573.453125
930,289398.875,274210.84375,309504.4375,278239.53125,681546.5,204542.515625,203908.171875,225726.609375
931,289175.875,273703.65625,309190.4375,277887.28125,681238.4375,204311.578125,203587.5625,225432.015625
932,289241.40625,273435.4375,309070.5625,277714.34375,681160.4375,204326.0625,203468.03125,225284.765625
933,289407.8125,273619.4375,309195.625,277835.875,681262.3125,204468.84375,203623.328125,225411.90625
934,289449.375,274148.375,309492.8125,278195.90625,681494.8125,204607.15625,203924.8125,225742.890625
935,289589.9375,274384.40625,309683.6875,278409.125,681609.4375,204678.421875,204045.859375,225909.890625
936,289422.1875,273939.78125,309420.5,278117.125,681318.6875,204521.421875,203759.40625,225634.875
937,289271.65625,273518.125,309091.90625,277724.28125,681125.625,204352.890625,203457.203125,225302.28125
938,289335.375,273630.59375,309137.25,277794.90625,681202.1875,204446.234375,203518.546875,225349.765625
939,289391.09375,274100.25,309506.6875,278254.90625,681611.5,204657.765625,203966.828125,225830.953125
940,289406.75,274319.75,309678.15625,278465.8125,681814.0,204698.890625,204125.625,226051.15625
941,289290.78125,273901.34375,309405.03125,278161.03125,681498.8125,204473.40625,203803.484375,225754.5
942,289262.875,273463.59375,309104.4375,277798.40625,681191.875,204296.828125,203460.421875,225376.9375
943,289313.125,273607.09375,309082.09375,277712.46875,681180.0625,204339.390625,203421.8125,225298.359375
944,289367.84375,273999.6875,309385.09375,278083.78125,681430.0,204517.484375,203744.65625,225646.953125
945,289343.875,274069.78125,309448.28125,278185.4375,681421.3125,204452.84375,203760.125,225703.1875
946,289223.625,273685.59375,309211.46875,277914.09375,681151.0,204296.828125,203493.875,225432.375
947,289184.28125,273379.46875,309000.0,277668.03125,681048.75,204239.15625,203294.21875,225184.359375
948,289068.6875,273284.5,308888.6875,277552.875,681092.75,204164.953125,203281.703125,225135.359375
949,289154.25,273826.125,309229.15625,277951.65625,681421.5,204342.15625,203648.0,225526.78125
950,289263.875,274139.15625,309464.65625,278222.46875,681626.5625,204459.28125,203856.40625,225771.5
951,289332.71875,273869.9375,309376.78125,278125.8125,681435.3125,204449.09375,203714.078125,225629.78125
952,289275.5625,273584.03125,309129.46875,277775.78125,681184.3125,204371.046875,203483.234375,225360.578125
953,289282.1875,273639.8125,309130.71875,277782.9375,681195.3125,204435.328125,203538.578125,225375.328125
954,289511.6875,274171.0625,309561.03125,278275.75,681585.4375,204744.21875,203987.125,225854.375
955,289550.40625,274448.84375,309733.59375,278468.875,681742.625,204810.390625,204121.859375,226044.640625
956,289312.84375,273955.34375,309426.9375,278200.46875,681415.0625,204485.125,203808.84375,225742.4375
957,289153.53125,273469.5,309076.53125,277786.78125,681167.5625,204305.140625,203499.953125,225393.578125
958,289326.0,273534.9375,309148.59375,277838.90625,681238.1875,204411.265625,203596.5,225465.1875
959,289518.0625,274210.0625,309569.09375,278315.25,681592.25,204650.4375,203997.046875,225903.1875
960,289443.40625,274339.96875,309724.375,278568.375,681810.375,204703.546875,204167.90625,226137.34375
961,289194.75,273743.53125,309263.9375,278033.1875,681305.6875,204354.234375,203626.28125,225606.71875
962,289077.28125,273254.375,308896.46875,277561.21875,681026.3125,204154.234375,203246.125,225179.0
963,289155.5,273306.40625,308882.4375,277533.9375,681033.4375,204165.84375,203224.484375,225113.640625
964,289336.90625,273932.8125,309303.8125,278022.53125,681403.3125,204429.78125,203648.09375,225553.34375
965,289329.5625,274076.65625,309468.9375,278257.9375,681554.6875,204503.8125,203815.734375,225755.578125
966,289309.375,273720.90625,309291.90625,278046.59375,681302.9375,204392.3125,203598.734375,225542.515625
967,289100.25,273371.59375,308968.4375,277646.5,681087.125,204222.796875,203328.546875,225229.59375
968,289089.53125,273343.59375,308908.71875,277583.8125,681126.8125,204196.515625,203313.984375,225175.59375
969,289244.0,274059.5,309338.6875,278048.28125,681531.875,204486.109375,203772.1875,225644.890625
970,289368.28125,274269.78125,309570.59375,278307.21875,681763.9375,204594.375,204002.765625,225915.265625
971,289386.71875,273920.09375,309423.78125,278159.96875,681530.9375,204503.625,203800.09375,225728.40625
972,289367.75,273535.9375,309161.9375,277844.34375,681218.875,204381.328125,203504.6875,225406.71875
973,289298.03125,273526.625,309101.65625,277765.59375,681209.25,204384.453125,203477.59375,225358.609375
974,289280.125,274063.25,309400.09375,278118.03125,681523.25,204561.03125,203840.046875,225752.09375
975,289293.625,274160.25,309575.34375,278364.25,681741.1875,204668.140625,204036.203125,225997.96875
976,289273.6875,273770.09375,309338.40625,278100.6875,681397.8125,204499.609375,203699.234375,225684.59375
977,289143.34375,273364.53125,309023.875,277700.21875,681175.8125,204312.203125,203404.453125,225357.984375
978,289133.6875,273443.03125,309000.8125,277671.34375,681224.3125,204288.96875,203426.546875,225345.921875
979,289222.5625,273901.6875,309295.40625,278023.4375,681440.8125,204450.4375,203708.53125,225657.765625
980,289324.9375,274061.28125,309450.875,278206.0,681532.8125,204499.609375,203802.859375,225802.15625
981,289255.1875,273660.09375,309205.46875,277919.28125,681213.25,204322.484375,203482.609375,225490.125
982,289148.0,273326.53125,308938.5,277600.8125,681015.9375,204172.828125,203211.78125,225178.90625
983,289168.65625,273386.34375,308959.25,277637.8125,681103.75,204260.796875,203285.453125,225204.296875
984,289196.625,273860.375,309263.40625,278023.4375,681401.25,204449.265625,203656.765625,225582.578125
985,289229.34375,274094.0,309448.5625,278257.78125,681596.125,204518.5625,203857.21875,225813.78125
986,289124.5625,273675.3125,309205.28125,277974.4375,681327.8125,204366.921875,203599.015625,225557.71875
987,289122.96875,273314.90625,308949.75,277645.0625,681118.3125,204249.453125,203312.1875,225233.890625
988,289244.1875,273475.9375,308992.59375,277665.375,681159.25,204319.546875,203347.234375,225229.515625
989,289301.59375,274042.9375,309369.34375,278143.6875,681514.9375,204536.359375,203757.53125,225670.46875
990,289308.75,274196.28125,309493.0,278290.3125,681640.8125,204531.609375,203869.375,225837.828125
991,289174.46875,273799.75,309254.5625,278032.125,681352.0,204376.578125,203608.046875,225589.734375
992,289104.4375,273343.34375,308966.03125,277690.9375,681113.8125,204256.421875,203332.484375,225274.125
993,289176.25,273410.65625,308984.625,277680.46875,681172.6875,204329.015625,203385.6875,225287.4375
994,289272.34375,273992.0625,309375.34375,278137.625,681539.25,204620.9375,203816.984375,225739.75
995,289319.90625,274289.8125,309617.0,278433.5625,681838.5,204740.5625,204079.125,226056.171875
996,289219.4375,273840.4375,309382.59375,278193.65625,681600.5,204545.828125,203822.53125,225831.390625
997,289138.4375,273387.875,309027.1875,277764.875,681216.0,204289.046875,203404.015625,225393.484375
998,289133.6875,273364.8125,308898.875,277597.15625,681108.5625,204206.984375,203234.9375,225189.1875
999,289187.6875,273797.78125,309175.875,277928.65625,681335.8125,204350.03125,203518.984375,225480.125
1000,289228.0,274008.34375,309383.28125,278188.84375,681518.6875,204461.15625,203732.046875,225724.90625
1001,289166.15625,273593.0625,309131.625,277904.4375,681205.8125,204268.21875,203422.25,225409.671875
1002,289099.96875,273231.59375,308861.78125,277590.1875,681012.375,204140.453125,203145.890625,225085.65625
1003,289081.90625,273326.8125,308883.40625,277621.5625,681108.8125,204233.265625,203249.78125,225148.15625
1004,289100.875,273841.4375,309194.46875,278004.5625,681419.6875,204399.46875,203617.609375,225545.5625
1005,289080.65625,273938.625,309320.53125,278177.65625,681581.875,204409.75,203756.640625,225734.125
1006,289018.25,273576.5,309098.1875,277893.625,681299.8125,204262.953125,203495.484375,225480.296875
1007,289084.78125,273378.3125,308965.3125,277698.53125,681154.6875,204274.03125,203350.015625,225290.84375
1008,289153.71875,273452.25,308993.65625,277713.90625,681203.3125,204364.15625,203410.09375,225315.96875
1009,289232.3125,273912.59375,309302.1875,278081.71875,681468.25,204520.34375,203734.375,225673.140625
1010,289278.4375,274131.09375,309490.40625,278318.03125,681631.5,204605.734375,203889.671875,225890.578125
1011,289142.28125,273700.4375,309235.15625,278043.8125,681325.0,204449.53125,203607.765625,225626.296875
1012,289161.5,273427.90625,309071.1875,277827.09375,681184.125,204439.703125,203463.828125,225450.96875
1013,289179.8125,273510.09375,309090.03125,277858.46875,681268.9375,204487.890625,203540.0,225499.34375
1014,289222.125,274004.3125,309407.25,278245.34375,681607.5625,204644.171875,203911.671875,225904.4375
1015,289173.125,274094.53125,309483.25,278347.28125,681714.3125,204601.703125,203981.5,226023.625
1016,289091.03125,273578.75,309132.15625,277924.28125,681249.625,204311.40625,203502.625,225553.609375
1017,289016.21875,273124.75,308777.65625,277499.34375,680895.5625,204092.984375,203071.328125,225076.09375
1018,289072.09375,273289.15625,308842.375,277564.875,681049.3125,204194.546875,203189.171875,225146.359375
1019,289116.625,273779.75,309139.75,277939.3125,681278.3125,204351.109375,203491.453125,225459.734375
1020,289101.15625,273909.46875,309287.4375,278135.1875,681434.375,204412.34375,203670.171875,225668.9375
1021,289038.8125,273538.0625,309094.78125,277903.625,681227.9375,204293.4375,203471.609375,225471.53125
1022,289023.96875,273203.40625,308848.5625,277592.84375,681051.3125,204175.15625,203215.71875,225169.515625
1023,289053.9375,273296.65625,308861.6875,277615.375,681122.75,204238.0,203273.484375,225178.90625
1024,289158.53125,273863.40625,309219.6875,278021.28125,681451.1875,204462.0625,203667.234375,225590.265625
1025,289166.5,274068.25,309389.65625,278230.6875,681632.375,204537.15625,203833.796875,225800.46875
1026,289022.71875,273611.21875,309119.46875,277933.9375,681324.0,204334.03125,203535.078125,225518.203125
1027,289007.71875,273259.84375,308885.125,277638.1875,681117.875,204213.6875,203288.140625,225242.828125
1028,289118.03125,273363.8125,308923.375,277657.6875,681176.75,204321.78125,203334.90625,225259.375
1029,289274.9375,273957.5625,309334.375,278135.1875,681538.8125,204591.34375,203760.65625,225708.90625
1030,289273.4375,274177.96875,309543.0625,278396.71875,681799.5,204678.328125,203997.765625,225995.015625
1031,289206.09375,273783.75,309340.03125,278170.96875,681555.75,204514.53125,203758.78125,225783.390625
1032,289116.78125,273365.15625,309035.15625,277814.21875,681228.0,204341.890625,203431.90625,225438.0
1033,289113.03125,273372.21875,308973.46875,277734.21875,681202.0,204311.765625,203377.734375,225371.671875
1034,289170.15625,273822.84375,309231.125,278031.5,681380.875,204435.40625,203611.703125,225642.484375
1035,289164.875,273946.84375,309339.5,278168.09375,681447.75,204433.71875,203685.203125,225758.0
1036,289084.78125,273539.15625,309104.6875,277911.15625,681178.9375,204261.34375,203401.875,225474.9375
1037,288998.5,273129.65625,308802.40625,277551.375,680960.75,204094.765625,203091.625,225110.0625
1038,289061.09375,273228.4375,308818.6875,277556.09375,681015.75,204162.09375,203148.671875,225110.15625
1039,289148.625,273829.90625,309202.25,278011.5625,681404.0625,204418.25,203605.984375,225570.78125
1040,289136.28125,274021.5,309374.71875,278228.34375,681612.25,204488.96875,203813.671875,225813.0625
1041,289081.90625,273622.1875,309153.78125,277971.5,681347.625,204335.984375,203548.671875,225560.046875
1042,289047.59375,273252.875,308884.40625,277644.8125,681137.375,204208.140625,203253.984375,225233.53125
1043,289100.53125,273359.0625,308910.875,277663.84375,681177.9375,204296.65625,203317.828125,225266.078125
1044,289193.5,273911.0625,309263.03125,278065.28125,681490.9375,204509.4375,203691.375,225668.40625
1045,289190.09375,274086.65625,309416.65625,278258.3125,681654.375,204552.796875,203837.546875,225861.609375
1046,289087.65625,273637.21875,309163.8125,277983.125,681348.8125,204357.8125,203553.59375,225580.796875
1047,289039.28125,273250.0,308889.40625,277649.71875,681111.75,204223.703125,203271.15625,225250.609375
1048,289067.96875,273315.53125,308878.0625,277623.4375,681157.75,204271.53125,203303.96875,225238.0
1049,289190.375,273891.0625,309254.5625,278055.8125,681496.125,204511.140625,203708.359375,225661.96875
1050,289192.59375,274095.34375,309432.46875,278284.0625,681696.75,204579.0,203894.671875,225894.25
1051,289093.28125,273702.75,309211.46875,278038.5625,681437.75,204426.46875,203647.828125,225664.921875
1052,289053.5,273350.84375,308967.09375,277737.875,681202.1875,204313.109375,203399.625,225391.6875
1053,289116.34375,273446.59375,308988.5625,277745.75,681253.3125,204371.84375,203446.75,225414.3125
1054,289195.375,273918.6875,309283.34375,278092.0,681497.6875,204515.703125,203741.34375,225737.78125
1055,289150.59375,273961.5,309298.28125,278115.0,681419.875,204422.265625,203676.34375,225714.28125
1056,289069.59375,273535.65625,309035.40625,277813.15625,681113.5,204249.796875,203339.28125,225378.546875
1057,288984.90625,273142.4375,308763.71875,277497.375,680952.25,204086.546875,203068.296875,225059.09375
1058,289009.5,273214.6875,308768.25,277493.6875,681056.4375,204137.421875,203133.734375,225078.59375
1059,289145.9375,273808.0625,309145.84375,277921.59375,681408.9375,204397.6875,203532.84375,225498.625
1060,289108.125,273981.625,309286.28125,278120.1875,681549.625,204431.65625,203673.84375,225691.03125
1061,288975.71875,273543.0,309029.0625,277841.75,681272.0,204228.25,203397.390625,225426.46875
1062,288865.1875,273084.59375,308694.875,277448.5625,681001.1875,204017.078125,203048.0,225038.53125
1063,288933.0625,273171.78125,308716.78125,277452.03125,681081.0,204086.1875,203101.28125,225054.453125
1064,289134.65625,273842.3125,309181.40625,277974.1875,681518.0625,204407.25,203594.546875,225575.515625
1065,289186.78125,274057.15625,309377.46875,278218.0,681710.875,204482.078125,203772.640625,225808.6875
1066,289126.8125,273685.84375,309175.34375,277996.09375,681431.3125,204356.640625,203519.4375,225573.90625
1067,289106.59375,273354.0625,308942.53125,277685.03125,681161.5625,204285.03125,203283.578125,225309.171875
1068,289188.5,273486.9375,308991.875,277712.3125,681192.75,204396.078125,203355.640625,225353.34375
1069,289218.34375,273960.53125,309284.5,278061.96875,681469.5,204566.65625,203680.8125,225700.421875
1070,289190.5625,274139.96875,309449.53125,278285.21875,681692.5,204589.640625,203867.40625,225937.34375
1071,289085.125,273702.5,309192.21875,277995.625,681404.3125,204382.484375,203558.78125,225660.1875
1072,289025.9375,273263.59375,308877.6875,277612.625,681134.9375,204179.078125,203191.3125,225277.96875
1073,289018.53125,273230.59375,308782.9375,277489.21875,681105.4375,204130.984375,203087.875,225135.984375
1074,289085.0625,273662.34375,309032.28125,277777.375,681271.4375,204250.96875,203316.75,225369.96875
1075,289072.8125,273899.09375,309225.3125,278020.3125,681455.375,204364.15625,203543.40625,225612.53125
1076,288975.25,273505.625,308999.03125,277762.5625,681219.875,204217.265625,203320.6875,225367.28125
1077,288957.90625,273151.46875,308738.59375,277437.71875,681019.125,204082.96875,203053.71875,225039.96875
1078,289008.78125,273251.6875,308753.6875,277443.09375,681089.875,204146.71875,203115.046875,225054.453125
1079,289085.75,273819.34375,309108.09375,277863.84375,681428.625,204386.0625,203515.234375,225463.84375
1080,289075.21875,274030.53125,309288.625,278087.625,681655.8125,204458.65625,203725.703125,225713.828125
1081,288993.40625,273589.84375,309055.71875,277819.84375,681379.375,204286.640625,203461.234375,225461.078125
1082,288955.59375,273214.15625,308785.59375,277479.3125,681112.5,204155.5625,203166.28125,225131.4375
1083,288933.5,273223.28125,308726.59375,277402.5,681125.75,204136.703125,203144.28125,225073.9375
1084,289084.875,273799.84375,309130.09375,277869.65625,681501.3125,204407.25,203579.15625,225531.609375
1085,289168.28125,274053.9375,309368.90625,278152.53125,681736.625,204532.0625,203813.140625,225811.90625
1086,289063.21875,273616.03125,309118.46875,277874.75,681418.875,204344.484375,203520.78125,225537.703125
1087,288972.84375,273197.15625,308802.40625,277488.34375,681125.75,204182.21875,203185.59375,225171.9375
1088,289028.53125,273274.3125,308812.0625,277481.09375,681180.6875,204266.96875,203218.21875,225175.15625
1089,289127.96875,273801.625,309158.96875,277893.71875,681488.25,204474.65625,203577.1875,225573.71875
1090,289117.40625,273986.71875,309327.5,278126.0,681688.0,204491.296875,203747.15625,225803.953125
1091,289016.375,273561.75,309087.28125,277860.28125,681400.625,204305.0625,203459.359375,225540.734375
1092,288950.3125,273139.59375,308786.40625,277493.6875,681119.1875,204142.78125,203119.78125,225178.90625
1093,288922.5,273093.34375,308672.5,277342.25,681073.9375,204091.828125,203016.53125,225033.703125
1094,289034.34375,273618.4375,308987.65625,277701.9375,681312.6875,204279.578125,203322.46875,225348.875
1095,289061.71875,273892.125,309211.46875,277989.1875,681527.4375,204394.828125,203555.46875,225617.265625
1096,288947.8125,273456.71875,308968.0,277724.09375,681256.6875,204211.265625,203296.640625,225356.828125
1097,288941.375,273115.4375,308736.53125,277430.21875,681093.1875,204114.625,203056.125,225067.328125
1098,288967.9375,273173.28125,308720.78125,277400.4375,681131.25,204145.109375,203079.375,225043.453125
1099,289049.46875,273705.34375,309055.875,277793.75,681429.5,204346.625,203448.890625,225428.625
1100,289054.5625,273925.03125,309223.71875,278003.5,681609.5,204395.453125,203618.859375,225641.234375
1101,288966.59375,273519.21875,308986.59375,277737.6875,681309.5625,204223.421875,203326.140625,225364.875
1102,288903.65625,273159.53125,308728.03125,277415.125,681104.5625,204122.21875,203056.484375,225060.625
1103,288953.4375,273172.125,308725.53125,277403.5,681152.75,204171.03125,203101.015625,225064.28125
1104,289066.90625,273725.65625,309086.90625,277828.25,681476.1875,204389.375,203495.125,225479.40625
1105,289118.3125,274000.9375,309332.5,278130.46875,681757.8125,204539.296875,203757.53125,225792.78125
1106,289019.0625,273569.8125,309088.0625,277860.71875,681468.25,204354.40625,203480.71875,225532.0625
1107,288953.09375,273138.40625,308780.25,277487.1875,681165.0625,204175.234375,203145.890625,225167.1875
1108,288952.0,273160.25,308741.34375,277431.90625,681177.5625,204192.9375,203135.875,225123.65625
1109,289053.9375,273694.4375,309084.9375,277834.0625,681472.6875,204399.828125,203494.40625,225509.71875
1110,289065.03125,273938.78125,309290.40625,278095.40625,681710.4375,204496.203125,203707.90625,225775.515625
1111,288966.3125,273529.9375,309058.65625,277836.03125,681444.9375,204335.09375,203444.0625,225529.65625
1112,288881.90625,273039.8125,308691.5625,277390.25,681066.5625,204101.125,203016.25,225067.859375
1113,288908.1875,273032.28125,308612.15625,277279.46875,681027.0,204070.90625,202928.1875,224933.9375
1114,289005.3125,273552.1875,308944.5,277672.15625,681303.9375,204265.890625,203268.828125,225285.390625
1115,289000.46875,273817.71875,309164.6875,277951.03125,681548.875,204381.59375,203510.5,225568.359375
1116,288911.78125,273391.25,308921.96875,277676.09375,681250.375,204205.90625,203213.84375,225286.1875
1117,288837.84375,273006.375,308637.8125,277330.8125,681023.4375,204068.578125,202909.953125,224950.65625
1118,288876.0,273059.75,308618.875,277296.90625,681069.6875,204113.90625,202921.75,224923.296875
1119,288963.46875,273581.6875,308958.0,277701.75,681381.4375,204328.484375,203287.875,225307.921875
1120,288956.84375,273805.65625,309134.21875,277929.375,681569.4375,204397.328125,203470.078125,225529.921875
1121,288946.65625,273489.0,308992.84375,277759.6875,681371.9375,204325.4375,203302.53125,225365.40625
1122,288945.125,273139.65625,308763.0,277464.09375,681143.875,204242.828125,203058.71875,225079.65625
1123,289018.1875,273173.75,308762.625,277449.1875,681173.3125,204288.96875,203086.890625,225067.328125
1124,289061.8125,273684.6875,309077.0625,277830.5,681449.1875,204476.359375,203429.21875,225435.140625
1125,289049.03125,273894.8125,309250.0,278051.875,681649.75,204523.296875,203615.546875,225672.25
1126,288979.09375,273548.53125,309033.90625,277792.6875,681371.125,204338.140625,203353.40625,225422.453125
1127,288908.65625,273158.34375,308771.03125,277479.65625,681148.8125,204232.453125,203092.96875,225128.84375
1128,288952.46875,273189.84375,308780.59375,277488.25,681216.9375,204315.078125,203162.078125,225161.5625
1129,289032.03125,273718.84375,309125.4375,277905.34375,681557.3125,204515.25,203552.078125,225579.53125
1130,289023.8125,273910.0,309287.71875,278112.125,681755.6875,204548.953125,203715.234375,225796.53125
1131,288909.375,273384.03125,308941.28125,277701.46875,681316.0625,204270.1875,203264.359375,225359.5
1132,288846.875,272930.28125,308578.90625,277250.6875,680946.0,204043.90625,202819.109375,224866.609375
1133,288868.0625,272935.65625,308532.3125,277183.90625,680935.375,204076.4375,202786.03125,224776.578125
1134,288992.4375,273545.3125,308948.6875,277667.15625,681350.125,204368.53125,203255.15625,225254.640625
1135,289014.5,273822.75,309185.15625,277961.3125,681607.625,204487.8125,203515.765625,225558.34375
1136,288996.34375,273488.8125,309027.53125,277773.71875,681390.1875,204397.328125,203320.953125,225378.734375
1137,288937.4375,273106.78125,308753.875,277442.65625,681124.125,204276.890625,203034.046875,225053.46875
1138,288967.21875,273132.78125,308722.5625,277393.375,681149.125,204302.375,203037.171875,225017.796875
1139,289040.25,273685.21875,309051.6875,277784.46875,681440.5,204490.21875,203397.046875,225393.84375
1140,289008.0625,273887.65625,309213.40625,277998.03125,681642.5,204553.25,203585.15625,225616.1875
1141,288944.0625,273491.5625,309018.78125,277780.15625,681405.8125,204426.375,203370.21875,225408.328125
1142,288932.25,273139.3125,308794.90625,277496.90625,681185.625,204349.5,203148.578125,225145.109375
1143,288988.03125,273183.03125,308779.0,277459.28125,681170.5,204373.984375,203156.265625,225118.828125
1144,289114.46875,273695.59375,309106.84375,277835.40625,681423.875,204562.453125,203475.625,225470.1875
1145,289159.0,273977.0625,309340.03125,278119.375,681665.3125,204686.828125,203702.71875,225750.21875
1146,289045.71875,273595.75,309133.9375,277907.125,681436.9375,204551.90625,203488.5,225551.28125
1147,288974.09375,273239.4375,308888.0625,277617.53125,681232.8125,204450.515625,203259.4375,225297.8125
1148,288991.34375,273245.8125,308847.84375,277561.03125,681268.4375,204474.75,203262.296875,225272.15625
1149,289044.625,273740.84375,309138.59375,277908.5625,681535.75,204640.328125,203576.75,225619.6875
1150,288998.5,273825.0625,309189.71875,277985.8125,681551.6875,204565.59375,203585.15625,225673.859375
1151,288868.25,273294.96875,308844.25,277592.5,681158.0,204280.109375,203152.6875,225244.265625
1152,288828.375,272883.15625,308545.46875,277219.59375,680913.3125,204116.671875,202803.5625,224848.453125
1153,288832.28125,272834.15625,308454.90625,277100.9375,680851.9375,204101.75,202712.359375,224705.9375
1154,288903.71875,273395.28125,308817.25,277532.59375,681225.125,204350.03125,203119.515625,225124.1875
1155,288964.09375,273722.4375,309095.84375,277873.15625,681510.1875,204515.515625,203415.09375,225466.796875
1156,288825.9375,273317.6875,308851.875,277616.09375,681262.8125,204333.75,203152.875,225220.03125
1157,288707.3125,272886.65625,308540.625,277258.03125,681060.5625,204162.90625,202860.78125,224891.8125
1158,288779.0,272951.8125,308546.0,277243.625,681111.0,204230.046875,202909.765625,224891.28125
1159,288911.40625,273489.15625,308891.125,277635.3125,681395.5625,204451.140625,203275.171875,225261.703125
1160,288923.40625,273739.9375,309101.03125,277893.4375,681627.625,204548.6875,203501.203125,225529.46875
1161,288847.3125,273372.21875,308907.84375,277679.40625,681389.8125,204425.046875,203277.234375,225328.9375
1162,288943.4375,273109.09375,308765.59375,277469.65625,681174.1875,204433.09375,203098.515625,225124.1875
1163,288947.8125,273063.3125,308678.84375,277347.96875,681143.625,204406.09375,203022.0625,225016.453125
1164,289004.125,273603.96875,309025.65625,277772.5625,681516.0,204628.984375,203409.640625,225443.375
1165,288989.28125,273825.96875,309206.28125,278007.15625,681751.125,204688.078125,203600.625,225701.75
1166,288873.78125,273353.875,308900.21875,277647.125,681397.1875,204440.328125,203235.65625,225341.453125
1167,288748.4375,272690.9375,308384.4375,277021.28125,680806.125,204055.25,202610.890625,224649.078125
