Unnamed: 0,EEG 1,EEG 2,EEG 3,EEG 4,EEG 5,EEG 6,EEG 7,EEG 8
0,288783.3125,273032.46875,308679.03125,277397.59375,681202.0,204068.21875,202984.34375,224946.796875
1,288868.40625,273086.125,308689.75,277382.125,681172.1875,204148.328125,203013.390625,224951.625
2,288908.75,273548.25,308959.0625,277710.5,681419.0,204285.390625,203305.21875,225274.21875
3,288895.5,273786.1875,309138.84375,277954.0625,681629.0,204331.703125,203493.6875,225515.796875
4,288789.90625,273416.5625,308926.4375,277719.71875,681389.5,204170.140625,203260.78125,225300.953125
5,288729.9375,273037.65625,308670.28125,277407.34375,681181.0,204031.65625,203011.0625,225017.890625
6,288750.65625,273023.96875,308622.4375,277341.0,681180.8125,204038.09375,203000.15625,224968.4375
7,288849.46875,273502.40625,308908.625,277672.6875,681384.9375,204196.15625,203282.0625,225264.28125
8,288838.09375,273678.15625,309039.875,277832.1875,681499.6875,204214.390625,203399.8125,225413.0625
9,288706.0625,273166.40625,308700.21875,277434.875,681108.125,203936.25,202957.96875,224972.90625
10,288638.71875,272782.40625,308440.59375,277121.21875,680951.1875,203821.0,202676.0625,224645.328125
11,288640.96875,272799.9375,308401.4375,277061.59375,680993.0625,203856.953125,202678.203125,224596.6875
12,288783.03125,273390.28125,308788.5625,277503.96875,681363.4375,204117.75,203096.984375,225028.25
13,288788.65625,273668.4375,309006.90625,277778.03125,681616.125,204208.859375,203324.796875,225303.09375
14,288642.9375,273219.25,308745.03125,277491.75,681338.8125,204007.6875,203034.578125,225032.28125
15,288538.59375,272742.09375,308398.65625,277075.28125,681030.5,203795.609375,202653.265625,224620.375
16,288569.78125,272776.78125,308372.625,277027.34375,681072.25,203857.125,202662.65625,224585.78125
17,288821.46875,273444.1875,308861.96875,277579.09375,681537.625,204216.1875,203194.53125,225132.140625
18,288852.78125,273704.53125,309067.78125,277833.4375,681744.625,204275.109375,203389.703125,225376.140625
19,288805.84375,273358.53125,308894.25,277644.34375,681500.0,204155.203125,203167.265625,225180.515625
20,288775.4375,272994.75,308642.125,277331.96875,681191.375,204077.96875,202897.875,224886.359375
21,288814.59375,273019.40625,308623.875,277294.15625,681182.875,204131.078125,202927.828125,224885.296875
22,288882.4375,273523.125,308935.1875,277669.65625,681469.25,204297.90625,203271.328125,225259.1875
23,288855.53125,273721.8125,309085.21875,277873.3125,681638.9375,204316.765625,203419.125,225460.171875
24,288756.3125,273302.9375,308843.71875,277606.71875,681352.625,204117.75,203134.1875,225192.765625
25,288660.71875,272859.03125,308520.0625,277213.6875,681085.0625,203944.84375,202791.046875,224803.65625
26,288706.84375,272919.09375,308522.84375,277204.8125,681150.5625,204029.859375,202845.3125,224811.171875
27,288831.125,273483.09375,308894.6875,277643.28125,681501.125,204257.765625,203261.140625,225244.0
28,288800.03125,273649.5625,309008.21875,277790.90625,681604.0625,204226.828125,203358.78125,225376.765625
29,288668.6875,273110.71875,308640.59375,277356.65625,681156.9375,203911.75,202886.4375,224897.984375
30,288619.875,272753.0625,308401.25,277061.15625,681001.1875,203828.15625,202642.0,224591.953125
31,288675.5625,272834.78125,308436.9375,277087.96875,681090.6875,203955.75,202753.671875,224645.328125
32,288799.46875,273399.3125,308803.5,277514.625,681420.5,204206.53125,203151.078125,225058.65625
33,288792.25,273659.84375,309012.34375,277774.625,681678.25,204300.59375,203378.265625,225329.46875
34,288679.59375,273236.0625,308761.75,277484.125,681382.3125,204104.25,203086.0,225052.9375
35,288638.625,272854.1875,308483.59375,277145.28125,681102.6875,203961.640625,202773.515625,224703.96875
36,288720.96875,272910.0625,308489.59375,277122.75,681167.125,204054.09375,202819.828125,224701.921875
37,288928.0625,273500.875,308922.03125,277609.9375,681556.0625,204381.234375,203293.5,225184.359375
38,288921.96875,273708.5625,309080.375,277810.28125,681706.4375,204407.78125,203442.09375,225374.53125
39,288821.5625,273283.34375,308826.5625,277525.1875,681373.5625,204193.65625,203133.640625,225074.390625
40,288726.4375,272856.34375,308530.09375,277173.34375,681107.1875,204051.40625,202825.1875,224724.453125
41,288745.65625,272832.46875,308460.96875,277082.78125,681102.6875,204056.234375,202773.609375,224629.40625
42,288852.21875,273318.40625,308754.3125,277433.8125,681332.625,204211.171875,203065.078125,224945.375
43,288834.71875,273572.75,308936.34375,277651.40625,681517.5,204272.25,203258.09375,225180.328125
44,288785.28125,273238.65625,308748.0625,277430.21875,681278.6875,204141.0,203023.046875,224955.125
45,288701.3125,272810.65625,308435.75,277056.875,681032.0,203973.453125,202690.09375,224575.234375
46,288693.4375,272737.15625,308335.625,276935.34375,681014.5625,203941.265625,202624.828125,224453.09375
47,288798.84375,273223.28125,308645.6875,277302.375,681284.25,204127.40625,202955.28125,224788.640625
48,288798.3125,273486.125,308843.09375,277548.40625,681465.625,204211.890625,203164.9375,225035.5
49,288728.6875,273088.625,308620.125,277291.1875,681208.6875,204028.875,202898.0625,224771.203125
50,288645.6875,272637.90625,308299.9375,276908.8125,680959.8125,203855.15625,202554.015625,224375.671875
51,288659.46875,272628.34375,308235.9375,276817.34375,680965.6875,203874.46875,202517.90625,224281.703125
52,288761.84375,273133.875,308559.78125,277196.59375,681277.0,204097.453125,202880.53125,224643.890625
53,288806.8125,273433.65625,308796.96875,277486.5625,681479.3125,204218.15625,203122.296875,224921.140625
54,288779.625,273139.40625,308639.96875,277288.5,681266.875,204122.046875,202927.65625,224730.625
55,288779.0,272744.75,308376.21875,276948.40625,681034.0625,204006.703125,202624.203125,224380.953125
56,288776.15625,272670.28125,308269.65625,276809.90625,680981.125,203982.75,202524.78125,224233.0625
57,288833.09375,273130.8125,308540.90625,277136.0625,681221.6875,204117.578125,202800.15625,224523.734375
58,288849.28125,273435.25,308779.96875,277435.9375,681431.5625,204229.328125,203047.546875,224811.890625
59,288775.96875,273089.59375,308605.53125,277239.53125,681246.0625,204108.0,202846.296875,224617.609375
60,288726.09375,272691.75,308335.4375,276914.15625,681060.25,203972.546875,202561.890625,224289.75
61,288764.15625,272656.0625,308260.15625,276799.1875,681046.4375,203970.046875,202512.625,224182.90625
62,288889.96875,273182.9375,308593.03125,277181.59375,681316.0625,204178.375,202857.46875,224530.4375
63,288914.28125,273459.46875,308793.84375,277425.9375,681456.25,204240.0625,203042.90625,224751.71875
64,288799.46875,273030.5,308531.96875,277132.40625,681146.9375,204026.375,202709.5,224424.84375
65,288675.21875,272568.09375,308196.96875,276748.40625,680887.25,203826.28125,202353.578125,224026.8125
66,288687.53125,272572.28125,308150.0,276685.90625,680911.3125,203852.921875,202342.21875,223970.21875
67,288836.59375,273154.78125,308534.46875,277136.6875,681263.875,204097.90625,202754.296875,224395.34375
68,288847.59375,273505.4375,308788.03125,277459.1875,681508.375,204220.484375,203032.703125,224714.609375
69,288760.0625,273156.5625,308601.53125,277257.9375,681281.5625,204070.453125,202830.28125,224519.171875
70,288704.8125,272742.15625,308316.5,276916.9375,681036.75,203890.921875,202525.59375,224174.234375
71,288716.78125,272728.5625,308264.46875,276855.78125,681035.75,203895.65625,202505.828125,224114.25
72,288860.1875,273336.8125,308668.3125,277328.03125,681396.875,204163.4375,202943.390625,224580.765625
73,288880.75,273662.53125,308929.65625,277656.34375,681682.0,204277.25,203220.640625,224918.90625
74,288826.84375,273360.3125,308793.5625,277507.03125,681509.9375,204182.390625,203060.78125,224792.484375
75,288793.125,273008.25,308549.84375,277205.09375,681195.5625,204069.375,202789.34375,224500.84375
76,288807.71875,273020.5,308503.96875,277143.6875,681158.5625,204108.1875,202756.796875,224445.234375
77,288869.84375,273493.0,308811.8125,277511.9375,681432.8125,204259.109375,203097.890625,224817.96875
78,288863.0625,273792.875,309059.28125,277821.28125,681740.125,204338.9375,203378.0,225156.015625
79,288761.84375,273411.28125,308852.5,277594.375,681509.25,204162.984375,203145.890625,224953.421875
80,288731.09375,273043.46875,308618.5,277310.34375,681203.0625,204071.25,202887.953125,224690.828125
81,288769.34375,273024.6875,308553.96875,277222.34375,681144.6875,204074.828125,202820.453125,224608.40625
82,288834.0,273424.25,308781.40625,277484.9375,681299.375,204183.28125,203028.765625,224843.265625
83,288851.6875,273675.21875,308983.75,277738.125,681475.75,204257.765625,203221.4375,225083.59375
84,288709.71875,273245.96875,308731.0625,277468.40625,681198.6875,204052.125,202947.328125,224811.265625
85,288617.625,272819.25,308434.40625,277114.71875,681012.875,203895.3125,202659.515625,224470.171875
86,288607.625,272759.34375,308338.40625,276994.46875,680997.6875,203870.0,202595.234375,224357.515625
87,288819.6875,273395.28125,308792.84375,277513.71875,681446.5,204178.640625,203089.296875,224870.09375
88,288846.59375,273701.40625,309035.6875,277805.5625,681716.625,204290.3125,203335.96875,225177.46875
89,288734.75,273284.15625,308785.15625,277520.875,681406.9375,204097.28125,203026.625,224900.578125
90,288784.375,272952.1875,308586.3125,277248.90625,681142.5625,204054.71875,202784.25,224633.4375
91,288889.6875,272990.90625,308592.9375,277225.125,681155.9375,204140.640625,202822.953125,224621.453125
92,289023.4375,273521.4375,308939.65625,277627.53125,681441.0625,204374.609375,203205.4375,225006.53125
93,289063.0625,273855.71875,309209.75,277961.9375,681743.5,204521.6875,203509.953125,225350.203125
94,288941.71875,273470.65625,308994.65625,277734.28125,681519.9375,204342.34375,203292.34375,225142.6875
95,288842.84375,272981.34375,308641.5625,277311.65625,681179.8125,204120.515625,202900.203125,224722.296875
96,288842.5,272924.03125,308542.25,277180.0625,681151.5625,204088.875,202805.34375,224599.375
97,288958.71875,273433.65625,308868.21875,277564.5,681419.25,204291.734375,203131.6875,224953.875
98,288970.15625,273713.75,309079.75,277825.65625,681631.0625,204381.59375,203334.546875,225211.1875
99,288850.8125,273173.5625,308704.4375,277379.25,681156.0625,204069.921875,202831.71875,224707.015625
100,288802.34375,272756.65625,308403.40625,277008.5,680878.4375,203913.1875,202487.859375,224298.515625
101,288840.78125,272788.65625,308397.59375,277002.15625,680946.4375,203978.359375,202557.953125,224291.359375
102,288970.15625,273382.21875,308786.3125,277464.09375,681321.4375,204242.734375,203017.421875,224736.515625
103,288963.8125,273717.59375,309033.34375,277778.28125,681594.1875,204358.609375,203310.046875,225063.03125
104,288860.90625,273350.75,308830.125,277559.40625,681355.25,204194.640625,203084.921875,224856.6875
105,288822.8125,272944.21875,308552.96875,277217.0,681073.3125,204043.265625,202764.84375,224517.109375
106,288885.125,272977.40625,308535.90625,277179.09375,681106.9375,204098.796875,202768.0625,224490.375
107,288989.125,273528.6875,308884.40625,277591.5,681425.0625,204324.8125,203155.640625,224899.0625
108,289018.25,273859.5,309136.8125,277901.75,681703.5625,204437.203125,203428.15625,225219.859375
109,288963.90625,273537.875,308978.90625,277724.28125,681498.75,204332.59375,203248.09375,225052.125
110,288910.875,273121.4375,308704.59375,277394.0,681179.375,204190.609375,202965.5625,224731.953125
111,288952.09375,273107.125,308658.90625,277327.40625,681131.25,204209.296875,202955.546875,224682.515625
112,289051.53125,273606.03125,308975.5,277704.875,681399.3125,204372.828125,203307.8125,225051.140625
113,289066.09375,273899.09375,309206.8125,277996.53125,681658.125,204456.6875,203541.515625,225345.734375
114,289034.53125,273589.3125,309070.5625,277842.9375,681477.8125,204369.515625,203369.234375,225207.875
115,289014.25,273216.125,308830.75,277544.125,681204.875,204277.78125,203107.984375,224923.46875
116,288999.21875,273139.84375,308717.9375,277404.375,681155.5,204238.53125,203017.6875,224796.78125
117,289088.625,273613.0,309010.75,277748.59375,681393.0625,204397.859375,203326.59375,225124.359375
118,289100.0625,273885.15625,309219.3125,278007.25,681593.125,204454.546875,203530.875,225376.40625
119,289002.09375,273477.71875,308973.90625,277728.9375,681271.5625,204266.875,203229.046875,225087.984375
120,288944.21875,273063.40625,308696.8125,277397.5,681049.3125,204115.6875,202934.265625,224758.515625
121,288951.84375,273016.28125,308611.09375,277283.875,681042.5625,204100.140625,202871.953125,224652.03125
122,289058.0625,273516.875,308920.15625,277638.90625,681295.75,204299.25,203188.984375,224985.25
123,289100.78125,273844.5625,309173.0,277947.4375,681537.4375,204420.21875,203440.3125,225284.671875
124,289046.4375,273508.75,308999.5625,277752.71875,681306.625,204278.765625,203225.015625,225085.75
125,289017.46875,273100.6875,308731.4375,277424.3125,681056.4375,204124.1875,202930.515625,224753.328125
126,289017.71875,273061.71875,308646.84375,277313.1875,681048.625,204113.8125,202882.6875,224653.90625
127,289123.6875,273596.375,308988.5625,277712.5625,681367.375,204343.953125,203271.25,225049.09375
128,289157.46875,273918.59375,309241.6875,278024.6875,681640.5,204439.171875,203542.234375,225365.140625
129,289148.96875,273623.625,309107.90625,277865.71875,681446.0625,204334.03125,203366.734375,225209.921875
130,289129.65625,273226.5625,308844.25,277539.75,681149.875,204200.265625,203063.8125,224878.40625
131,289174.0,273217.09375,308786.3125,277448.5625,681118.0625,204225.65625,203021.53125,224793.203125
132,289309.28125,273799.84375,309163.8125,277886.65625,681448.375,204473.046875,203439.59375,225222.625
133,289345.03125,274182.34375,309473.6875,278274.40625,681829.625,204625.765625,203792.21875,225632.46875
134,289275.75,273869.15625,309325.8125,278121.25,681671.8125,204499.421875,203618.140625,225495.671875
135,289156.75,273397.625,308980.96875,277707.90625,681261.25,204264.28125,203242.71875,225101.921875
136,289138.5,273243.46875,308800.09375,277476.625,681091.375,204142.609375,203044.515625,224861.78125
137,289275.03125,273761.59375,309151.375,277887.375,681400.3125,204382.21875,203408.03125,225240.421875
138,289307.3125,274104.28125,309431.75,278231.125,681709.3125,204525.4375,203708.71875,225594.734375
139,289237.3125,273732.09375,309225.75,277996.15625,681436.25,204339.484375,203446.21875,225358.4375
140,289129.125,273206.5625,308844.34375,277542.59375,681011.8125,204085.5625,203005.609375,224884.3125
141,289055.46875,273095.6875,308688.59375,277363.625,680928.125,204014.125,202877.671875,224707.1875
142,289129.9375,273643.3125,309028.71875,277777.75,681278.625,204231.75,203274.015625,225120.171875
143,289215.125,274083.4375,309366.03125,278177.21875,681660.5625,204422.1875,203643.09375,225540.5625
144,289245.8125,273874.59375,309318.03125,278117.75,681603.9375,204416.453125,203590.96875,225509.265625
145,289249.90625,273499.625,309096.5625,277842.125,681300.1875,204329.28125,203364.234375,225252.21875
146,289257.4375,273440.78125,309008.78125,277727.59375,681162.1875,204318.296875,203308.890625,225152.984375
147,289391.34375,273959.625,309341.28125,278101.9375,681457.6875,204525.359375,203660.96875,225526.078125
148,289431.5,274278.09375,309596.8125,278409.6875,681739.4375,204629.609375,203914.171875,225843.5625
149,289346.46875,273922.4375,309411.46875,278201.96875,681515.6875,204483.0625,203689.125,225654.109375
150,289340.125,273586.53125,309204.84375,277938.6875,681235.6875,204420.125,203464.90625,225418.515625
151,289412.09375,273622.5625,309212.78125,277923.9375,681276.625,204496.390625,203514.78125,225443.8125
152,289521.34375,274126.71875,309555.84375,278332.96875,681651.625,204693.0,203900.578125,225867.34375
153,289455.90625,274221.84375,309590.8125,278379.625,681634.25,204583.203125,203872.859375,225892.90625
154,289358.0,273756.65625,309272.96875,278001.09375,681193.5625,204308.8125,203436.015625,225459.46875
155,289289.625,273281.75,308932.6875,277586.25,680878.6875,204108.8125,203046.828125,225005.90625
156,289302.9375,273202.0625,308838.28125,277464.8125,680845.5,204121.765625,202988.359375,224872.5
157,289354.6875,273707.0625,309149.125,277849.28125,681186.9375,204322.046875,203362.796875,225246.671875
158,289305.15625,274040.8125,309382.03125,278160.3125,681457.8125,204424.953125,203651.9375,225576.40625
159,289171.40625,273719.9375,309186.96875,277955.5,681254.75,204269.65625,203458.640625,225395.8125
160,289187.34375,273375.71875,308974.53125,277686.28125,681054.125,204175.78125,203241.296875,225140.734375
161,289433.46875,273510.71875,309093.0,277765.9375,681202.0625,204382.296875,203403.390625,225243.28125
162,289678.0,274178.125,309562.1875,278291.9375,681630.8125,204744.9375,203927.484375,225764.078125
163,289678.875,274527.34375,309816.46875,278608.4375,681932.0,204853.390625,204210.109375,226092.734375
164,289551.125,274169.1875,309588.75,278359.15625,681641.625,204656.6875,203923.46875,225844.359375
165,289470.46875,273714.28125,309267.59375,277968.375,681229.625,204486.109375,203535.4375,225464.65625
166,289419.0625,273549.6875,309132.15625,277817.09375,681156.125,204412.171875,203438.53125,225348.328125
167,289505.0,274008.15625,309424.4375,278169.53125,681422.1875,204555.671875,203763.078125,225698.09375
168,289577.0625,274482.21875,309812.4375,278645.0,681922.9375,204796.34375,204218.328125,226207.890625
169,289523.3125,274255.125,309731.90625,278571.9375,681903.375,204732.875,204165.578125,226175.078125
170,289417.5625,273679.5,309310.4375,278056.875,681386.8125,204428.890625,203688.6875,225657.046875
171,289406.8125,273340.5625,308979.96875,277624.5,680958.0,204202.78125,203257.296875,225152.984375
172,289508.84375,273812.71875,309268.125,277955.125,681184.75,204404.390625,203532.21875,225417.890625
173,289452.34375,274089.4375,309466.34375,278213.78125,681349.25,204461.078125,203719.703125,225659.734375
174,289224.78125,273662.78125,309170.59375,277898.8125,681092.375,204206.53125,203376.5625,225353.34375
175,289048.40625,273120.8125,308767.46875,277432.90625,680815.125,203947.25,202927.921875,224886.1875
176,289037.21875,272975.0625,308634.15625,277272.0625,680781.9375,203898.609375,202805.515625,224720.0625
177,289306.5,273671.71875,309140.375,277832.375,681313.375,204302.015625,203358.78125,225269.921875
178,289769.90625,274507.96875,309869.65625,278618.34375,682077.0,204891.5625,204141.625,226081.921875
179,289817.125,274383.5,309872.34375,278616.375,682072.375,204940.5625,204161.015625,226112.9375
180,289753.1875,273974.09375,309603.5,278291.3125,681720.25,204804.484375,203909.15625,225833.453125
181,289707.3125,273791.09375,309425.0625,278084.40625,681436.125,204709.890625,203760.03125,225656.0625
182,289714.75,274132.28125,309595.625,278299.15625,681533.0,204767.015625,203920.609375,225857.859375
183,289681.84375,274414.4375,309780.96875,278550.84375,681709.375,204800.546875,204087.625,226103.46875
184,289640.96875,274158.5625,309661.0,278431.125,681562.5,204701.046875,203960.125,226012.625
185,289568.375,273760.4375,309389.1875,278123.125,681263.6875,204563.078125,203719.4375,225732.515625
186,289529.40625,273586.71875,309212.53125,277902.46875,681150.375,204489.234375,203609.46875,225536.71875
187,289629.90625,274022.5625,309458.40625,278160.78125,681288.25,204622.625,203883.0625,225766.9375
188,289675.65625,274284.71875,309647.21875,278376.0625,681366.0625,204679.140625,204058.390625,225942.34375
189,289649.46875,274082.375,309576.9375,278304.625,681252.9375,204674.484375,203990.078125,225871.265625
190,289455.1875,273588.0625,309225.125,277917.40625,681015.1875,204444.625,203651.84375,225507.46875
191,289386.8125,273414.96875,309029.78125,277684.3125,680905.6875,204296.109375,203440.84375,225273.9375
192,289439.90625,273888.46875,309306.40625,277999.65625,681146.1875,204460.171875,203696.015625,225570.6875
193,289499.09375,274312.15625,309625.84375,278364.71875,681477.375,204627.453125,203997.765625,225944.671875
194,289687.03125,274257.78125,309742.53125,278474.0625,681563.1875,204759.609375,204075.109375,226059.46875
195,289851.28125,274063.875,309683.25,278345.21875,681371.125,204846.953125,203968.625,225941.09375
196,289979.375,274188.9375,309746.03125,278391.96875,681321.5,204980.4375,204026.640625,225983.296875
197,289901.78125,274606.75,309970.15625,278701.84375,681589.1875,205088.53125,204291.109375,226313.03125
198,289987.4375,274887.65625,310204.40625,278967.125,681849.5625,205102.203125,204460.890625,226590.1875
199,289847.96875,274481.21875,309948.875,278668.59375,681562.5625,204849.1875,204105.765625,226297.65625
200,289693.65625,273880.84375,309510.0625,278131.96875,681120.375,204560.765625,203566.640625,225734.03125
201,289650.71875,273662.15625,309300.40625,277862.25,680949.75,204400.28125,203351.984375,225438.8125
202,289760.875,273991.71875,309495.9375,278074.59375,681072.375,204482.984375,203543.484375,225561.125
203,289785.1875,274308.84375,309772.9375,278408.5,681285.375,204642.203125,203880.90625,225864.828125
204,289814.78125,274095.0,309706.3125,278310.15625,681156.0625,204614.5,203812.609375,225758.796875
205,289708.21875,273780.0,309482.53125,278063.125,680990.875,204499.34375,203606.875,225487.625
206,289402.4375,273464.40625,309213.875,277821.90625,680939.5,204281.625,203485.546875,225308.28125
207,289367.65625,273920.46875,309460.71875,278113.84375,681288.0,204344.3125,203823.421875,225663.3125
208,289577.6875,274526.90625,309949.96875,278628.1875,681890.9375,204649.546875,204375.953125,226279.765625
209,290087.125,274647.53125,310288.53125,278891.59375,682164.0,204985.0,204646.328125,226596.71875
210,290333.34375,274491.40625,310301.15625,278818.4375,682026.75,205093.625,204615.828125,226569.265625
211,290333.78125,274552.21875,310230.4375,278720.28125,681855.0,205088.265625,204580.78125,226529.84375
212,290454.9375,275123.625,310508.125,279062.4375,682115.4375,205234.984375,204860.625,226900.609375
213,290340.3125,275246.375,310597.875,279232.65625,682243.5625,205105.15625,204909.09375,227107.5
214,290134.25,274911.4375,310389.65625,279031.59375,682057.875,204862.953125,204662.0625,226975.53125
215,289963.90625,274535.59375,310122.6875,278743.0625,681760.25,204679.40625,204398.046875,226739.328125
216,289857.96875,274332.1875,309963.53125,278590.46875,681567.1875,204587.671875,204322.578125,226616.296875
217,289929.59375,274524.84375,310004.9375,278660.46875,681402.1875,204505.59375,204301.5625,226560.0625
218,289935.75,274887.40625,310215.59375,278947.46875,681565.4375,204622.625,204540.28125,226774.8125
219,289932.09375,274657.8125,310113.75,278829.71875,681434.8125,204569.171875,204460.0,226643.21875
220,289751.84375,274071.5625,309715.0,278370.59375,681089.3125,204324.71875,204064.109375,226184.203125
221,289844.375,274049.65625,309736.71875,278379.1875,681197.25,204464.65625,204132.5,226202.796875
222,290042.59375,274686.6875,310138.6875,278826.84375,681583.375,204759.515625,204526.515625,226619.703125
223,290048.21875,275006.75,310376.875,279098.46875,681866.4375,204836.21875,204720.265625,226887.296875
224,289749.0625,274464.5,310013.0,278688.53125,681507.75,204453.03125,204309.890625,226506.59375
225,289737.4375,273985.625,309758.8125,278325.8125,681320.25,204348.234375,204049.984375,226217.015625
226,290033.46875,274095.0,309831.84375,278322.0625,681387.4375,204487.09375,204087.078125,226199.578125
227,290342.8125,274795.3125,310306.4375,278808.34375,681775.1875,204907.578125,204564.0625,226678.625
228,290290.875,274983.4375,310522.4375,279106.15625,682020.4375,205045.96875,204809.140625,226981.625
229,290136.9375,274427.21875,310170.625,278707.75,681624.0,204765.953125,204373.625,226603.0625
230,290007.8125,273945.3125,309789.03125,278271.71875,681321.375,204539.390625,203936.34375,226179.28125
231,290019.8125,273935.46875,309709.53125,278194.375,681391.375,204515.609375,203917.5625,226146.828125
232,290059.6875,274382.6875,309912.125,278456.625,681549.25,204582.578125,204138.671875,226388.3125
233,290061.8125,274544.6875,310048.5625,278645.875,681648.125,204595.0,204303.359375,226564.625
234,290001.28125,274147.8125,309796.90625,278367.21875,681342.0625,204380.34375,204000.09375,226221.5625
235,289960.15625,273721.4375,309475.21875,277971.59375,681027.8125,204183.375,203651.9375,225780.34375
236,289992.53125,273813.625,309446.78125,277903.1875,681051.5,204253.46875,203694.40625,225720.984375
237,290105.1875,274353.1875,309834.1875,278371.0625,681479.9375,204528.75,204169.78125,226172.3125
238,290119.21875,274802.46875,310155.3125,278765.875,681807.25,204682.171875,204529.5625,226566.328125
239,290044.5625,274582.34375,310039.4375,278635.15625,681666.4375,204601.359375,204409.484375,226454.65625
240,290011.75,274226.78125,309782.3125,278306.3125,681381.25,204484.765625,204149.9375,226153.53125
241,290134.78125,274347.65625,309837.03125,278341.71875,681432.0625,204585.796875,204243.8125,226197.34375
242,290128.59375,274778.0625,310125.65625,278716.53125,681730.3125,204738.0625,204623.171875,226577.859375
243,290184.75,275129.5,310412.46875,279076.75,682073.0,204832.203125,204953.078125,226945.046875
244,290225.15625,274906.0,310352.03125,279009.34375,681976.0625,204771.671875,204859.203125,226872.265625
245,290213.8125,274534.96875,310121.625,278734.21875,681617.625,204659.5625,204585.609375,226585.90625
246,290232.78125,274533.25,310078.15625,278690.3125,681483.375,204679.765625,204556.296875,226545.578125
247,290306.96875,274977.0625,310344.5,279005.5,681735.75,204838.09375,204830.859375,226874.15625
248,290410.34375,275396.03125,310637.5,279348.625,681998.625,204944.140625,205046.59375,227182.96875
249,290375.1875,275099.5625,310531.625,279252.96875,681861.0,204851.875,204897.28125,227078.0
250,290283.0,274628.03125,310263.6875,278957.90625,681553.5625,204706.578125,204638.90625,226809.0625
251,290286.84375,274600.5,310170.6875,278817.625,681454.5625,204699.609375,204578.46875,226719.921875
252,290336.5625,274987.1875,310394.03125,279088.71875,681620.3125,204807.4375,204797.953125,226972.859375
253,290389.59375,275368.0625,310717.78125,279484.0,681998.8125,204988.578125,205130.109375,227384.671875
254,290284.1875,274966.96875,310509.90625,279251.625,681771.9375,204787.859375,204866.984375,227174.109375
255,290209.0625,274487.84375,310185.09375,278849.03125,681451.4375,204596.53125,204486.734375,226787.15625
256,290230.8125,274318.3125,310000.28125,278596.53125,681308.0,204501.125,204252.3125,226512.671875
257,290326.71875,274772.78125,310268.59375,278916.71875,681530.1875,204664.734375,204509.890625,226782.953125
258,290336.03125,275112.78125,310508.75,279226.15625,681756.5,204751.90625,204759.953125,227073.890625
259,290262.09375,274788.0625,310328.78125,279031.59375,681543.0625,204613.59375,204555.390625,226868.515625
260,290101.34375,274249.75,309930.90625,278579.71875,681226.125,204350.296875,204155.75,226411.828125
261,290137.46875,274172.15625,309835.875,278457.96875,681208.6875,204334.46875,204087.796875,226282.546875
262,290395.125,274818.65625,310303.21875,278988.3125,681668.8125,204695.5,204597.78125,226793.6875
263,290544.78125,275335.59375,310705.4375,279447.875,682094.1875,204943.15625,205020.765625,227266.203125
264,290616.84375,275196.5625,310696.25,279426.78125,682039.3125,204977.84375,204968.375,227249.390625
265,290471.5625,274705.90625,310333.0625,279010.75,681614.0625,204770.515625,204575.328125,226847.953125
266,290431.53125,274579.9375,310203.4375,278872.8125,681528.875,204653.5625,204487.984375,226730.109375
267,290513.875,275069.0,310517.5,279258.15625,681835.875,204809.3125,204851.328125,227118.140625
268,290537.65625,275442.4375,310801.46875,279618.46875,682165.1875,204936.53125,205146.828125,227483.453125
269,290450.03125,275100.375,310627.9375,279448.125,681974.75,204778.109375,204939.046875,227309.5625
270,290338.90625,274524.5,310206.375,278946.46875,681512.875,204480.734375,204440.515625,226778.578125
271,290352.84375,274455.46875,310107.125,278824.0625,681449.125,204466.4375,204359.234375,226643.65625
272,290469.6875,274918.15625,310372.59375,279128.875,681606.0,204622.90625,204610.828125,226901.78125
273,290516.71875,275341.84375,310693.8125,279528.34375,681937.4375,204803.40625,204943.875,227284.96875
274,290464.15625,275074.09375,310580.8125,279409.15625,681794.3125,204717.21875,204805.5625,227172.40625
275,290437.5,274687.3125,310334.125,279106.78125,681493.1875,204615.5625,204526.34375,226873.4375
276,290417.40625,274610.40625,310227.9375,278979.46875,681455.375,204572.828125,204467.15625,226771.953125
277,290497.21875,275059.34375,310490.15625,279293.46875,681676.0,204726.703125,204750.578125,227069.953125
278,290509.46875,275409.625,310731.65625,279585.8125,681940.9375,204818.4375,205001.53125,227368.296875
279,290467.375,275130.59375,310603.53125,279437.59375,681782.625,204723.921875,204851.0625,227225.609375
280,290436.15625,274729.6875,310340.21875,279107.9375,681499.375,204585.890625,204558.078125,226888.359375
281,290456.375,274667.625,310256.0,278993.9375,681471.4375,204587.40625,204498.265625,226781.703125
282,290572.15625,275170.90625,310581.0,279376.25,681753.875,204803.765625,204850.078125,227152.828125
283,290618.65625,275592.8125,310894.09375,279760.71875,682104.8125,204967.5625,205166.5,227538.71875
284,290490.78125,275236.8125,310693.1875,279550.875,681873.625,204774.53125,204913.109375,227335.671875
285,290422.84375,274781.0,310398.34375,279199.125,681502.1875,204598.3125,204565.5,226982.78125
286,290466.5625,274750.875,310347.1875,279121.53125,681486.125,204628.984375,204527.859375,226915.375
287,290619.71875,275346.25,310745.59375,279585.28125,681867.0,204912.046875,204947.265625,227374.390625
288,290714.9375,275874.625,311160.53125,280095.4375,682384.125,205125.546875,205386.171875,227906.4375
289,290650.375,275627.96875,311060.46875,280000.75,682311.8125,205016.46875,205259.75,227840.1875
290,290563.21875,275152.3125,310738.78125,279615.96875,681879.6875,204790.71875,204887.1875,227462.890625
291,290575.28125,275048.78125,310622.21875,279470.5,681631.0625,204731.265625,204762.828125,227308.671875
292,290703.125,275615.0,310992.71875,279906.71875,681971.25,204974.265625,205145.484375,227723.703125
293,290719.5,276112.375,311373.125,280389.875,682487.375,205163.0,205577.5,228238.765625
294,290645.1875,275909.78125,311303.5625,280341.3125,682490.875,205059.296875,205507.140625,228232.875
295,290602.28125,275565.625,311080.5,280078.0,682219.375,204915.703125,205244.71875,227990.75
296,290544.4375,275519.25,310994.6875,279994.15625,682125.1875,204868.953125,205192.78125,227943.90625
297,290628.40625,276113.0,311389.6875,280481.59375,682636.25,205104.796875,205655.734375,228462.90625
298,290735.21875,276680.71875,311853.875,281052.53125,683318.625,205350.671875,206183.765625,229085.359375
299,290700.90625,276524.25,311837.15625,281062.90625,683453.25,205284.25,206176.875,229156.0
300,290744.8125,276349.90625,311761.0625,280958.65625,683455.6875,205303.109375,206103.921875,229118.265625
301,290861.375,276470.53125,311867.375,281079.1875,683673.8125,205426.046875,206281.578125,229324.265625
302,290999.0625,277124.53125,312328.09375,281638.96875,684343.125,205693.8125,206813.90625,229956.375
303,291023.125,277653.84375,312735.625,282159.3125,685048.1875,205869.859375,207266.578125,230558.171875
304,290896.34375,277451.21875,312692.875,282178.53125,685285.5625,205730.203125,207255.75,230675.921875
305,290802.375,277147.15625,312532.9375,282026.8125,685339.125,205574.28125,207129.875,230624.5
306,290831.625,277300.9375,312657.90625,282194.71875,685732.25,205682.8125,207355.890625,230926.515625
307,290951.0625,277984.53125,313151.4375,282810.375,686581.0,205940.484375,207932.828125,231653.84375
308,291011.3125,278590.90625,313628.875,283427.65625,687482.5625,206116.53125,208457.5625,232377.515625
309,290985.125,278588.21875,313732.3125,283609.5,687976.0,206083.09375,208574.78125,232674.15625
310,290976.8125,278527.34375,313767.625,283701.3125,688380.9375,206072.09375,208650.234375,232890.53125
311,291030.53125,278900.875,314068.84375,284117.25,689180.875,206271.46875,209097.09375,233485.078125
312,291159.375,279834.03125,314771.40625,285024.375,690540.75,206654.9375,209952.984375,234577.359375
313,291237.53125,280697.875,315488.1875,285961.4375,692049.3125,206977.078125,210798.0625,235728.484375
314,291173.25,280867.75,315756.9375,286379.40625,693109.8125,206996.46875,211155.421875,236390.09375
315,291128.625,280931.125,315926.1875,286663.90625,694064.375,207011.578125,211429.71875,236936.453125
316,291199.6875,281439.59375,316365.8125,287262.40625,695385.25,207247.703125,212044.84375,237823.375
317,291436.1875,282647.03125,317327.5625,288488.09375,697419.0625,207777.453125,213200.25,239334.265625
318,291562.96875,283803.0625,318308.15625,289778.21875,699728.625,208225.203125,214382.5625,240955.125
319,291581.375,284303.375,318905.21875,290632.9375,701781.875,208421.984375,215154.6875,242180.09375
320,291583.96875,284638.84375,319349.84375,291295.0,703742.3125,208584.703125,215791.265625,243250.921875
321,291600.78125,285212.125,319890.84375,292064.71875,705635.1875,208801.78125,216575.09375,244468.640625
322,291728.8125,286336.9375,320851.4375,293337.15625,706783.9375,209267.6875,217792.28125,246192.765625
323,291792.46875,287288.59375,321756.9375,294557.375,706923.3125,209612.875,218919.4375,247884.53125
324,291710.21875,287468.40625,322133.09375,295152.9375,706883.625,209602.875,219436.03125,248947.125
325,291639.125,287479.03125,322355.25,295531.125,706853.8125,209586.234375,219796.6875,249804.265625
326,291680.96875,287852.65625,322812.9375,296170.46875,706886.5,209812.703125,220478.875,250966.828125
327,291757.25,288583.46875,323501.71875,297080.71875,706900.625,210103.1875,221369.984375,252381.0625
328,291767.96875,289103.8125,324089.03125,297863.46875,706887.875,210285.484375,222102.140625,253656.375
329,291649.96875,288785.90625,324120.6875,297985.25,706855.8125,210122.59375,222204.953125,254254.328125
330,291518.25,288202.15625,323909.6875,297785.0625,706837.1875,209882.265625,222043.40625,254505.828125
331,291524.96875,287934.28125,323855.15625,297721.0625,706842.75,209838.71875,222053.953125,254873.46875
332,291665.59375,288246.6875,324212.4375,298134.1875,706890.375,210068.140625,222482.03125,255678.125
333,291655.5,288366.21875,324445.0625,298426.1875,706907.3125,210113.46875,222762.6875,256349.125
334,291510.9375,287767.1875,324181.40625,298129.71875,706893.6875,209808.328125,222483.28125,256408.578125
335,291307.71875,286927.65625,323658.625,297512.0,706847.9375,209401.25,221905.359375,256094.59375
336,291350.4375,286638.875,323511.03125,297300.46875,706868.6875,209369.421875,221766.515625,256174.515625
337,291542.59375,287027.0,323816.0,297617.59375,706902.375,209596.25,222072.109375,256732.59375
338,291650.5,287410.8125,324160.46875,298013.78125,706925.5625,209785.96875,222418.28125,257366.140625
339,291629.75,287162.34375,324123.03125,297980.15625,706952.375,209744.578125,222378.765625,257586.25
340,291550.625,286765.28125,323895.03125,297717.03125,706963.6875,209605.453125,222145.859375,257566.859375
341,291535.25,286689.03125,323851.03125,297672.5,706988.1875,209616.8125,222163.03125,257781.515625
342,291611.25,287126.5,324159.3125,298049.4375,706999.1875,209778.46875,222516.90625,258376.4375
343,291663.625,287509.6875,324476.96875,298442.84375,706987.875,209886.90625,222838.234375,258972.515625
344,291506.625,287048.8125,324205.53125,298149.75,706901.9375,209586.59375,222483.734375,258858.34375
345,291409.4375,286487.59375,323857.03125,297732.5,706862.25,209357.890625,222084.171875,258617.203125
346,291362.0625,286203.1875,323629.84375,297447.46875,706834.4375,209257.671875,221864.140625,258514.5625
347,291413.21875,286471.78125,323802.21875,297640.3125,706844.6875,209391.953125,222068.96875,258875.0625
348,291424.21875,286661.3125,323981.3125,297853.71875,706863.5625,209468.75,222269.609375,259259.5
349,291254.96875,286031.34375,323606.78125,297426.53125,706840.6875,209201.078125,221844.109375,258985.03125
350,291149.71875,285287.3125,323111.28125,296813.125,706845.0,208932.046875,221283.4375,258500.984375
351,291132.75,284842.15625,322761.1875,296348.03125,706862.125,208791.671875,220912.84375,258162.75
352,291234.65625,284936.28125,322781.5625,296313.34375,706883.625,208869.546875,220894.25,258199.765625
353,291412.59375,285117.15625,322932.46875,296421.34375,706926.625,209032.8125,220980.4375,258350.234375
354,291386.46875,284530.5625,322561.0,295923.96875,706939.9375,208843.0,220501.125,257896.3125
355,291262.75,283655.1875,321924.6875,295114.125,706938.75,208497.796875,219761.28125,257107.65625
356,291180.9375,283060.71875,321394.125,294420.21875,706933.875,208257.46875,219171.203125,256412.875
357,291219.09375,283081.71875,321307.78125,294268.0625,706971.5625,208296.71875,219050.421875,256228.703125
358,291192.46875,283054.71875,321232.40625,294141.09375,707009.25,208307.8125,218937.40625,256078.140625
359,291057.0,282259.28125,320603.96875,293318.03125,706979.375,207927.734375,218140.609375,255186.390625
360,290886.875,281128.90625,319688.78125,292133.65625,706899.6875,207419.1875,216997.71875,253863.34375
361,290811.78125,280328.96875,318946.96875,291141.21875,706828.0,207087.84375,216080.84375,252709.734375
362,290869.15625,280222.21875,318698.0625,290742.21875,706817.4375,207077.484375,215705.15625,252119.46875
363,290874.0,280108.5,318514.78125,290438.75,706837.8125,207064.78125,215419.859375,251644.890625
364,290685.96875,279207.375,317789.78125,289502.75,706828.875,206685.34375,214539.390625,250532.046875
365,290448.6875,277995.625,316783.15625,288211.8125,706800.25,206168.296875,213346.421875,249025.0
366,290383.875,277135.90625,315981.71875,287123.8125,706809.3125,205863.234375,212398.265625,247706.15625
367,290504.375,276838.875,315588.125,286493.125,706845.625,205828.1875,211834.46875,246779.453125
368,290643.59375,276498.875,315226.21875,285882.125,706896.5625,205806.203125,211264.765625,245849.0
369,290461.90625,275183.875,314157.53125,284459.59375,706888.4375,205290.328125,209928.046875,244074.0
370,290167.40625,273442.59375,312702.96875,282561.90625,706856.625,204528.65625,208185.5,241769.078125
371,290066.1875,272013.9375,311415.34375,280805.78125,706859.0,204014.125,206622.03125,239551.25
372,290094.28125,271064.625,310439.0,279398.96875,706867.9375,203689.046875,205331.984375,237588.5
373,290017.03125,269965.625,309376.9375,277897.375,706868.5,203278.21875,203922.21875,235481.359375
374,289792.875,268061.25,307763.6875,275731.21875,706856.0,202533.640625,201890.703125,232657.625
375,289568.84375,265903.78125,305896.6875,273227.375,706852.375,201718.421875,199572.390625,229418.234375
376,289450.1875,264136.125,304206.28125,270908.625,706857.3125,201062.890625,197459.34375,226304.53125
377,289457.6875,263094.875,302976.9375,269145.5,706842.5625,200648.578125,195783.671875,223638.15625
378,289442.84375,262218.15625,301906.28125,267605.03125,706824.0,200295.6875,194278.515625,221155.328125
379,289331.8125,260831.546875,300520.28125,265717.8125,706784.875,199731.078125,192432.4375,218299.578125
380,289215.03125,259468.890625,299121.0625,263819.53125,706780.4375,199233.359375,190631.0625,215436.859375
381,289085.0625,258224.625,297725.15625,261918.109375,706749.5,198730.171875,188880.125,212575.65625
382,289085.6875,257301.21875,296573.40625,260264.890625,706731.5,198379.875,187342.5,209914.546875
383,288964.53125,255955.921875,295191.28125,258326.640625,706437.5625,197852.203125,185533.875,206941.671875
384,288622.0,253492.671875,293016.375,255419.65625,703045.375,196850.65625,182826.640625,202936.421875
385,288347.8125,250676.875,290531.5625,252063.140625,696510.3125,195787.34375,179740.84375,198380.0625
386,288269.375,248585.203125,288443.375,249180.65625,690171.1875,195052.328125,177088.765625,194183.46875
387,288505.4375,248539.78125,287702.09375,248010.046875,685310.25,195059.921875,175887.140625,191613.28125
388,289001.1875,250619.9375,288506.6875,248888.921875,682505.375,195867.0,176455.5,191143.90625
389,289433.28125,253534.15625,290063.6875,250905.765625,681298.625,196902.875,178062.859375,192042.4375
390,289738.71875,256433.34375,291775.46875,253205.484375,680929.1875,197925.6875,180048.40625,193543.234375
391,290016.5,259137.28125,293485.84375,255497.796875,681017.1875,198965.5,182177.90625,195320.1875
392,290269.25,261601.796875,295171.53125,257741.828125,681389.5625,199912.3125,184283.171875,197219.203125
393,290331.28125,263344.5,296419.71875,259459.15625,681458.125,200460.640625,185854.578125,198679.21875
394,290278.90625,264257.0,297150.4375,260553.046875,681128.0625,200718.234375,186838.0625,199574.796875
395,290263.4375,264923.09375,297742.40625,261456.0625,680726.5,200950.859375,187695.75,200346.109375
396,290345.15625,265794.53125,298443.53125,262448.03125,680529.0,201303.21875,188689.5,201264.328125
397,290459.59375,266953.25,299348.15625,263679.78125,680642.6875,201718.78125,189846.703125,202418.5625
398,290477.90625,268004.21875,300238.84375,264901.96875,680936.0625,202049.3125,190993.609375,203630.125
399,290424.28125,268348.4375,300706.15625,265599.8125,680850.25,202171.0,191659.953125,204379.359375
400,290374.65625,268385.375,300937.28125,265994.625,680494.6875,202170.109375,192060.140625,204841.046875
401,290346.75,268655.8125,301216.3125,266418.59375,680210.1875,202259.15625,192523.71875,205351.203125
402,290416.59375,269469.875,301885.28125,267316.6875,680441.875,202560.546875,193384.4375,206320.375
403,290516.90625,270304.9375,302647.5625,268313.9375,680889.0625,202898.234375,194322.140625,207410.15625
404,290616.15625,270545.25,303064.71875,268872.375,680967.375,203079.90625,194869.046875,208086.890625
405,290529.875,270374.84375,303100.65625,268987.78125,680594.4375,203001.953125,195013.171875,208321.125
406,290535.5,270515.21875,303297.1875,269278.09375,680416.25,203071.234375,195368.65625,208749.5625
407,290703.0625,271266.40625,303933.84375,270083.84375,680779.0,203408.21875,196161.0625,209671.625
408,290828.21875,271994.625,304615.75,270953.40625,681305.0,203731.0625,196972.171875,210673.96875
409,290766.4375,271932.21875,304765.5,271207.40625,681265.8125,203690.390625,197195.5,211074.6875
410,290691.96875,271679.5625,304737.53125,271230.28125,680999.9375,203602.3125,197239.3125,211244.5625
411,290666.46875,271707.90625,304842.40625,271399.71875,680884.3125,203644.078125,197464.4375,211574.5625
412,290795.21875,272333.5,305353.71875,272037.5625,681205.125,203902.546875,198083.9375,212343.28125
413,290881.6875,272952.0,305892.5625,272719.375,681464.125,204120.703125,198699.5,213147.765625
414,290824.8125,272865.28125,306007.09375,272910.6875,681399.25,204099.875,198875.453125,213494.125
415,290748.09375,272462.0625,305858.96875,272769.15625,681077.6875,203925.25,198747.78125,213487.15625
416,290736.3125,272343.875,305808.1875,272727.78125,680771.5,203846.671875,198725.703125,213554.65625
417,290852.90625,272914.1875,306248.78125,273272.71875,681031.5,204075.109375,199218.421875,214196.59375
418,290863.34375,273487.71875,306747.5625,273914.28125,681372.0625,204287.984375,199802.875,214985.796875
419,290764.125,273324.84375,306782.90625,274011.21875,681323.125,204206.4375,199876.28125,215237.65625
420,290673.53125,272887.625,306589.3125,273807.71875,681025.5625,204023.875,199689.6875,215168.625
421,290737.1875,272888.53125,306655.125,273885.78125,680971.3125,204086.71875,199824.421875,215390.359375
422,290924.78125,273510.1875,307144.90625,274468.71875,681362.625,204382.484375,200394.578125,216094.53125
423,290963.59375,274015.59375,307574.6875,275012.125,681601.375,204557.1875,200877.015625,216761.0625
424,290968.9375,273921.8125,307657.28125,275128.8125,681516.5,204580.15625,200968.828125,217019.625
425,290956.96875,273587.5,307516.03125,274959.1875,681284.4375,204491.828125,200797.703125,216973.671875
426,290967.25,273533.25,307528.09375,274980.375,681254.1875,204479.125,200881.3125,217144.890625
427,291076.40625,274023.71875,307916.65625,275459.5,681538.6875,204674.84375,201345.15625,217743.015625
428,291123.4375,274499.28125,308320.25,275971.28125,681792.625,204854.28125,201796.03125,218374.5
429,291015.0625,274254.40625,308253.375,275935.34375,681608.0625,204725.53125,201726.46875,218463.015625
430,290924.15625,273795.5625,308014.90625,275672.5625,681329.1875,204535.09375,201469.15625,218306.28125
431,290942.46875,273714.5625,307970.03125,275618.46875,681235.625,204518.5625,201465.84375,218366.0
432,291080.53125,274238.3125,308345.46875,276071.875,681514.8125,204745.828125,201888.390625,218900.75
433,291146.3125,274774.21875,308779.625,276611.15625,681824.0,204972.84375,202365.109375,219540.546875
434,290995.0625,274359.4375,308567.28125,276386.40625,681467.25,204683.703125,202099.828125,219407.328125
435,290920.40625,273854.65625,308273.75,276033.59375,681079.25,204452.40625,201741.484375,219122.03125
436,290930.21875,273811.03125,308260.78125,276018.84375,681052.875,204502.015625,201776.625,219218.046875
437,291103.6875,274402.28125,308699.96875,276537.0625,681431.5,204803.953125,202271.234375,219827.265625
438,291177.09375,274939.6875,309135.28125,277074.46875,681778.3125,205020.765625,202756.34375,220469.84375
439,291091.53125,274727.0,309080.65625,277038.625,681637.25,204913.375,202703.15625,220549.6875
440,291038.15625,274318.59375,308863.46875,276786.3125,681420.6875,204768.625,202478.921875,220399.5625
441,291120.3125,274288.375,308862.15625,276765.9375,681420.5,204817.984375,202522.453125,220488.53125
442,291180.84375,274718.5,309139.21875,277104.34375,681579.3125,204973.90625,202840.484375,220905.4375
443,291202.90625,275162.40625,309482.53125,277532.59375,681831.125,205122.0625,203196.59375,221419.4375
444,291155.28125,274982.625,309462.40625,277530.8125,681714.5,205063.671875,203158.40625,221518.3125
445,291208.5625,274678.625,309351.28125,277380.4375,681507.6875,205004.390625,203027.34375,221470.578125
446,291267.5625,274639.5625,309330.46875,277330.96875,681498.3125,205035.328125,203038.875,221530.75
447,291371.8125,275094.375,309656.53125,277726.875,681735.0625,205236.3125,203414.5625,222004.875
448,291393.96875,275587.09375,310042.5,278218.4375,682122.375,205422.109375,203864.375,222598.703125
449,291309.6875,275324.25,309957.375,278142.53125,681978.5,205288.53125,203775.671875,222623.65625
450,291247.71875,274835.90625,309670.1875,277797.875,681573.1875,205095.6875,203435.21875,222344.875
451,291190.21875,274620.15625,309480.75,277566.125,681388.6875,204983.75,203238.875,222184.9375
452,291288.40625,275063.34375,309775.875,277915.625,681604.9375,205180.171875,203557.171875,222589.5
453,291308.875,275457.375,310070.21875,278284.0625,681807.8125,205278.34375,203841.484375,223010.421875
454,291192.0,275148.75,309912.84375,278122.40625,681538.9375,205091.921875,203630.75,222907.78125
455,291112.1875,274744.0,309684.78125,277859.09375,681359.0625,204966.3125,203392.21875,222721.90625
456,291133.8125,274685.59375,309638.0,277795.625,681389.0,205007.34375,203392.75,222747.921875
457,291334.09375,275296.09375,310062.15625,278279.78125,681771.625,205338.515625,203885.65625,223309.21875
458,291449.40625,275854.25,310504.8125,278812.8125,682217.1875,205577.9375,204380.96875,223922.375
459,291451.90625,275678.65625,310497.9375,278815.40625,682171.625,205546.03125,204375.953125,224013.484375
460,291440.21875,275282.5625,310281.375,278543.59375,681798.6875,205444.28125,204135.0,223817.140625
461,291461.9375,275185.65625,310197.0,278429.0625,681565.6875,205461.890625,204080.90625,223787.828125
462,291511.5625,275577.0,310433.03125,278720.71875,681704.1875,205558.625,204342.421875,224134.546875
463,291536.9375,276006.0625,310752.21875,279121.0,682007.75,205653.5,204669.484375,224592.578125
464,291473.28125,275834.5,310727.0,279116.96875,681971.0,205600.109375,204643.015625,224674.46875
465,291422.875,275443.0625,310521.09375,278880.03125,681679.125,205481.296875,204423.4375,224517.03125
466,291440.03125,275345.25,310445.53125,278783.40625,681559.6875,205472.53125,204388.734375,224513.265625
467,291546.0625,275804.96875,310738.96875,279126.90625,681819.375,205655.1875,204730.1875,224920.15625
468,291607.3125,276221.8125,311034.71875,279485.875,682079.0,205745.046875,205009.9375,225306.578125
469,291548.375,275992.125,310934.15625,279377.875,681900.375,205627.75,204867.6875,225245.6875
470,291438.96875,275512.8125,310618.28125,279007.53125,681487.4375,205425.78125,204508.71875,224917.203125
471,291463.625,275454.96875,310578.84375,278957.21875,681445.8125,205467.703125,204523.65625,224944.390625
472,291531.5,275913.4375,310873.625,279317.0625,681717.0625,205653.21875,204872.875,225365.859375
473,291557.15625,276410.4375,311228.125,279758.5625,682142.3125,205820.140625,205262.78125,225877.625
474,291582.1875,276311.65625,311268.625,279819.34375,682224.25,205813.984375,205307.578125,226021.921875
475,291560.71875,275883.75,311041.4375,279542.65625,681926.375,205677.359375,205061.625,225819.421875
476,291609.71875,275811.6875,310976.875,279438.3125,681777.5625,205695.78125,205027.28125,225795.984375
477,291736.40625,276290.90625,311298.40625,279808.1875,682082.4375,205920.46875,205394.75,226224.4375
478,291925.6875,276896.03125,311793.15625,280389.25,682652.0,206246.4375,205920.734375,226861.546875
479,291841.28125,276672.0625,311721.03125,280337.1875,682639.9375,206140.140625,205851.890625,226893.109375
480,291720.84375,276159.21875,311408.90625,279977.59375,682292.0625,205923.859375,205516.796875,226615.671875
481,291723.28125,275982.28125,311266.46875,279795.5,682072.25,205873.34375,205381.0625,226509.109375
482,291821.09375,276323.09375,311451.8125,280005.0625,682170.8125,205976.15625,205544.234375,226736.203125
483,291853.96875,276752.78125,311768.75,280403.375,682524.25,206107.59375,205875.21875,227166.78125
484,291791.84375,276602.5,311739.25,280395.6875,682554.0,206069.59375,205870.03125,227232.140625
485,291724.0625,276120.9375,311444.65625,280045.03125,682187.875,205892.65625,205547.8125,226934.140625
486,291697.4375,275887.25,311244.3125,279796.46875,681866.75,205789.484375,205349.421875,226735.125
487,291790.9375,276226.96875,311416.21875,279981.53125,681903.375,205886.671875,205477.890625,226914.828125
488,291839.5,276723.0,311778.59375,280432.5,682300.5625,206078.53125,205843.125,227392.4375
489,291783.1875,276589.34375,311751.96875,280420.09375,682320.1875,206057.4375,205795.734375,227447.78125
490,291679.46875,276137.5625,311485.34375,280115.84375,682018.75,205856.09375,205514.203125,227212.734375
491,291691.8125,276038.59375,311394.0625,279994.875,681866.625,205831.5,205452.15625,227164.90625
492,291906.5625,276652.46875,311815.625,280479.625,682303.9375,206160.78125,205922.96875,227691.328125
493,292051.21875,277255.78125,312288.5625,281056.03125,682895.0,206436.15625,206439.65625,228304.125
494,292078.84375,277210.625,312353.46875,281136.21875,683057.125,206464.765625,206520.734375,228471.046875
495,292055.78125,276855.25,312157.9375,280890.1875,682852.375,206370.984375,206310.453125,228303.234375
496,292002.21875,276684.03125,312014.90625,280722.8125,682708.4375,206298.296875,206208.171875,228226.609375
497,292121.3125,277173.71875,312343.46875,281124.0625,683101.8125,206495.4375,206575.09375,228676.859375
498,292165.125,277730.90625,312762.34375,281654.4375,683712.6875,206687.3125,207040.90625,229279.203125
499,292100.3125,277583.5625,312740.625,281652.1875,683842.5625,206625.078125,207022.40625,229376.390625
500,292028.3125,277123.5625,312468.28125,281335.0625,683592.3125,206439.828125,206720.65625,229130.25
501,291983.0,276922.5625,312281.96875,281107.0,683390.5625,206331.015625,206551.859375,228968.15625
502,292087.15625,277360.40625,312565.5625,281441.90625,683732.8125,206514.65625,206874.796875,229347.6875
503,292128.5625,277805.5625,312901.46875,281860.25,684221.0625,206648.765625,207231.34375,229816.0
504,292056.75,277596.96875,312823.5,281790.0625,684247.5625,206543.453125,207122.546875,229804.203125
505,291957.96875,277099.96875,312517.0,281432.25,683956.5,206344.15625,206773.3125,229504.6875
506,291945.1875,276968.15625,312416.6875,281306.375,683898.875,206338.171875,206712.703125,229468.109375
507,292063.375,277439.78125,312718.1875,281664.0,684302.1875,206549.890625,207057.265625,229875.71875
508,292130.34375,277936.09375,313099.9375,282124.71875,684887.6875,206754.890625,207474.171875,230409.921875
509,292115.6875,277713.09375,313045.59375,282055.4375,684974.9375,206673.53125,207401.75,230425.578125
510,292039.40625,277200.1875,312707.09375,281633.5,684622.3125,206459.859375,206994.15625,230055.96875
511,292003.28125,276950.28125,312502.25,281381.75,684422.875,206344.96875,206801.390625,229873.578125
512,292078.125,277338.59375,312727.375,281643.34375,684714.0625,206508.671875,207046.546875,230173.171875
513,292249.53125,277868.84375,313185.3125,282177.46875,685354.4375,206814.265625,207538.8125,230768.09375
514,292296.46875,277728.84375,313189.4375,282167.625,685481.1875,206823.390625,207527.015625,230836.84375
515,292143.46875,277114.15625,312780.9375,281695.84375,685081.625,206567.328125,207080.421875,230409.390625
516,292140.34375,276853.5625,312551.15625,281405.15625,684799.1875,206450.734375,206837.421875,230142.78125
517,292262.75,277275.5625,312777.1875,281662.125,685015.375,206618.109375,207064.25,230377.5625
518,292246.5625,277656.15625,313017.6875,281970.9375,685365.375,206705.640625,207321.65625,230683.6875
519,292113.09375,277321.59375,312787.71875,281712.71875,685161.125,206499.1875,207042.078125,230420.390625
520,291949.03125,276593.28125,312280.53125,281085.1875,684512.3125,206167.671875,206449.125,229782.296875
521,291951.53125,276333.65625,312081.78125,280832.0625,684188.0625,206124.046875,206254.84375,229511.65625
522,292020.46875,276736.6875,312307.8125,281105.21875,684388.375,206293.296875,206512.515625,229760.125
523,292056.21875,277231.375,312654.875,281544.03125,684850.75,206485.515625,206899.921875,230198.296875
524,291931.5,276992.03125,312520.84375,281412.0625,684794.375,206344.703125,206761.25,230088.0625
525,291901.46875,276555.71875,312263.71875,281096.34375,684498.3125,206213.53125,206476.65625,229780.0625
526,292099.6875,276629.125,312321.03125,281109.84375,684506.375,206376.171875,206560.96875,229817.421875
527,292324.34375,277237.625,312711.8125,281533.46875,684914.6875,206696.25,206992.453125,230254.546875
528,292384.25,277741.28125,313055.40625,281950.1875,685368.0625,206864.421875,207360.890625,230686.375
529,292350.46875,277611.71875,313040.75,281955.375,685449.875,206827.9375,207345.34375,230727.765625
530,292204.46875,277043.4375,312680.96875,281558.78125,685086.875,206579.84375,206964.46875,230355.5625
531,292156.90625,276859.28125,312509.15625,281366.375,684888.3125,206502.765625,206816.953125,230190.25
532,292249.34375,277306.5625,312776.1875,281697.625,685198.5625,206683.46875,207118.515625,230527.5
533,292359.40625,277862.5,313183.90625,282205.375,685730.625,206853.328125,207539.71875,231034.34375
534,292285.90625,277741.1875,313123.625,282154.9375,685778.9375,206736.21875,207469.609375,231028.453125
535,292160.125,277238.96875,312814.75,281803.3125,685498.4375,206562.40625,207153.109375,230719.09375
536,292144.375,277086.1875,312697.875,281663.03125,685409.375,206553.28125,207087.484375,230635.6875
537,292280.0,277540.46875,312988.375,282006.53125,685768.4375,206747.921875,207407.75,230993.9375
538,292324.96875,278018.34375,313329.71875,282433.0,686267.25,206905.546875,207763.140625,231439.546875
539,292248.0,277790.09375,313221.53125,282332.21875,686260.8125,206760.265625,207618.390625,231359.609375
540,292096.53125,277258.75,312884.46875,281963.15625,685943.25,206520.390625,207248.421875,230999.484375
541,292040.9375,277036.125,312688.3125,281725.78125,685763.875,206384.84375,207085.34375,230816.109375
542,292146.96875,277462.59375,312939.71875,282006.15625,686083.625,206583.6875,207363.484375,231115.4375
543,292284.03125,278028.09375,313389.53125,282530.4375,686727.1875,206876.40625,207845.84375,231677.0
544,292199.1875,277764.53125,313277.59375,282415.03125,686750.75,206746.765625,207704.125,231605.5625
545,292250.25,277355.3125,313060.4375,282123.65625,686527.6875,206650.203125,207415.703125,231330.640625
546,292292.34375,277219.125,312933.125,281947.5,686378.8125,206644.125,207276.765625,231165.0625
547,292357.53125,277617.0,313160.46875,282215.90625,686673.5,206813.640625,207533.453125,231439.453125
548,292342.59375,277992.0625,313421.375,282550.125,687111.8125,206932.109375,207822.234375,231792.515625
549,292222.34375,277724.8125,313270.96875,282376.21875,687090.75,206788.78125,207655.40625,231675.3125
550,292210.4375,277203.125,312931.5,281951.4375,686684.8125,206575.375,207218.65625,231232.921875
551,292166.1875,276864.09375,312653.8125,281622.78125,686325.375,206409.78125,206933.171875,230891.203125
552,292206.25,277144.5625,312741.15625,281695.28125,686356.9375,206435.265625,207017.390625,230946.1875
553,292308.25,277631.03125,313088.6875,282097.09375,686765.0625,206640.1875,207372.875,231333.328125
554,292241.28125,277457.9375,313022.59375,282029.6875,686761.6875,206584.671875,207302.515625,231282.90625
555,292152.96875,276918.28125,312684.75,281636.375,686373.4375,206364.375,206930.40625,230884.6875
556,292160.65625,276763.6875,312545.1875,281450.59375,686194.375,206353.109375,206829.734375,230732.953125
557,292198.65625,277114.34375,312699.5,281626.71875,686358.1875,206438.390625,207016.859375,230913.640625
558,292204.8125,277547.78125,312968.0625,281967.09375,686716.8125,206527.625,207289.546875,231238.015625
559,292131.40625,277315.78125,312870.25,281876.25,686690.9375,206408.453125,207175.203125,231159.421875
560,291970.84375,276763.25,312505.65625,281451.03125,686304.25,206190.65625,206782.796875,230754.328125
561,292104.15625,276720.0625,312481.25,281380.59375,686223.6875,206285.953125,206764.015625,230696.75
562,292287.15625,277223.875,312782.5625,281695.84375,686518.5625,206524.859375,207075.953125,231018.796875
563,292508.4375,277903.1875,313286.1875,282256.84375,687127.875,206853.953125,207587.015625,231600.109375
564,292435.125,277710.875,313210.625,282197.84375,687131.375,206752.84375,207485.359375,231550.671875
565,292319.875,277243.09375,312910.75,281842.46875,686839.625,206602.90625,207166.796875,231234.4375
566,292325.0625,277000.53125,312759.46875,281690.8125,686681.5625,206566.421875,207033.84375,231088.078125
567,292373.34375,277374.15625,312950.28125,281932.75,686890.5,206690.609375,207236.09375,231317.859375
568,292339.1875,277736.96875,313181.3125,282213.59375,687259.0625,206729.15625,207494.296875,231650.625
569,292222.34375,277446.9375,313002.75,281992.03125,687127.625,206540.765625,207269.875,231478.703125
570,292105.03125,276757.34375,312538.46875,281428.40625,686539.4375,206229.984375,206707.515625,230897.375
571,292098.6875,276336.6875,312135.59375,280905.375,685838.8125,205992.609375,206183.046875,230298.703125
572,292215.90625,276753.59375,312380.3125,281185.3125,685983.625,206250.828125,206460.484375,230537.953125
573,292326.3125,277313.28125,312815.375,281734.0,686520.8125,206517.96875,206976.359375,231081.015625
574,292159.75,277067.15625,312667.65625,281592.9375,686445.25,206400.75,206873.0,230990.359375
575,291932.75,276367.96875,312144.375,280977.625,685840.6875,206066.375,206336.03125,230411.1875
576,291937.84375,276089.125,311900.90625,280670.875,685470.0,205997.984375,206115.015625,230115.953125
577,291964.84375,276307.0,311949.90625,280734.15625,685425.5,206002.1875,206177.5,230147.078125
578,291989.96875,276741.96875,312199.15625,281040.125,685658.9375,206099.09375,206424.984375,230422.359375
579,292192.375,276726.40625,312329.0625,281133.71875,685775.3125,206294.0,206551.40625,230556.734375
580,292306.65625,276315.59375,312094.375,280777.53125,685349.9375,206253.5,206231.15625,230195.53125
581,292365.21875,276125.25,311904.03125,280509.40625,684930.25,206241.96875,206006.46875,229903.703125
582,292484.75,276360.28125,312038.15625,280639.03125,684911.9375,206392.4375,206137.0,230019.046875
583,292400.78125,276645.84375,312165.0,280794.96875,684951.0,206403.078125,206230.171875,230145.90625
584,292238.25,276347.6875,311942.75,280553.5625,684613.75,206189.84375,205958.28125,229881.71875
585,292116.46875,275713.78125,311543.375,280085.96875,684028.75,205951.484375,205516.15625,229403.46875
586,292077.9375,275405.78125,311286.78125,279759.90625,683546.4375,205866.8125,205254.203125,229070.34375
587,292133.5625,275694.375,311371.78125,279820.875,683402.9375,205941.65625,205317.328125,229087.875
588,292161.375,276001.21875,311533.09375,280010.0625,683353.125,205991.0,205417.8125,229183.890625
589,292063.375,275638.40625,311288.125,279725.9375,682821.0625,205784.46875,205073.515625,228805.609375
590,292022.25,275240.03125,311021.84375,279398.0625,682250.4375,205692.65625,204761.84375,228415.703125
591,292043.71875,275148.03125,310914.65625,279254.9375,681887.1875,205700.796875,204690.484375,228254.0625
592,292154.125,275621.25,311157.9375,279531.03125,681926.125,205863.953125,204956.390625,228488.75
593,292190.78125,276199.96875,311550.15625,280026.34375,682260.0,206044.5625,205387.328125,228960.640625
594,292153.21875,276133.28125,311550.0625,280053.59375,682176.4375,205991.09375,205377.140625,228982.8125
595,292052.1875,275716.1875,311264.0625,279714.84375,681780.8125,205796.1875,205064.84375,228650.21875
596,292174.59375,275725.3125,311263.78125,279678.4375,681727.875,205881.578125,205103.734375,228636.8125
597,292316.5,276274.46875,311612.5625,280089.0,681973.0625,206125.65625,205519.296875,229052.109375
598,292447.375,276942.875,312089.46875,280683.84375,682436.5,206388.328125,206029.265625,229631.375
599,292493.34375,276967.90625,312197.03125,280832.15625,682531.625,206449.125,206149.515625,229817.25
600,292455.875,276615.71875,311988.96875,280589.96875,682196.0,206336.203125,205912.234375,229603.921875
601,292389.96875,276450.5,311845.375,280458.53125,681949.3125,206247.875,205809.859375,229500.65625
602,292460.4375,276877.40625,312120.125,280807.75,682213.0,206400.84375,206151.3125,229884.65625
603,292484.125,277411.0,312485.90625,281266.125,682652.1875,206528.609375,206553.203125,230383.46875
604,292401.875,277229.875,312424.125,281233.6875,682597.1875,206392.53125,206465.125,230377.65625
605,292309.96875,276749.84375,312129.0625,280902.625,682197.0625,206203.4375,206130.65625,230067.234375
606,292297.1875,276566.71875,311990.75,280740.25,681973.5,206175.0,206030.609375,229950.109375
607,292373.0,276949.21875,312225.1875,281016.0625,682164.875,206328.6875,206291.6875,230245.15625
608,292472.21875,277506.84375,312621.15625,281492.4375,682600.25,206531.015625,206682.203125,230727.765625
609,292351.34375,277267.875,312505.9375,281396.3125,682498.1875,206380.109375,206535.578125,230658.5625
610,292088.40625,276543.65625,312007.84375,280827.34375,681939.0,206006.5625,206009.875,230146.890625
611,292106.8125,276378.25,311866.125,280621.53125,681744.9375,206008.703125,205890.0625,229993.109375
612,292298.0625,276805.0,312157.3125,280943.375,681978.6875,206250.640625,206210.59375,230320.703125
613,292352.6875,277231.1875,312452.0,281290.09375,682285.625,206379.390625,206509.390625,230676.890625
614,292237.375,276962.90625,312304.59375,281122.09375,682112.875,206241.796875,206329.40625,230538.3125
615,292254.53125,276509.15625,312053.625,280785.125,681814.625,206141.125,206028.28125,230223.25
616,292386.21875,276375.125,311963.65625,280621.15625,681788.0625,206208.984375,205926.453125,230075.640625
617,292466.78125,276703.53125,312138.5625,280820.90625,681910.25,206351.578125,206105.53125,230261.15625
618,292386.84375,277037.28125,312325.9375,281069.0,682089.0625,206364.015625,206326.546875,230529.5625
619,292285.625,276748.21875,312177.1875,280907.96875,681959.6875,206209.78125,206178.84375,230401.25
620,292224.5625,276272.59375,311871.5,280534.78125,681743.4375,206042.953125,205837.9375,230040.140625
621,292196.6875,275998.0,311641.34375,280260.59375,681594.5,205944.6875,205615.578125,229764.671875
622,292284.75,276226.09375,311709.03125,280313.96875,681652.625,205956.9375,205643.75,229769.78125
623,292342.3125,276646.5625,311942.40625,280572.0625,681771.4375,206040.0,205828.546875,229978.1875
624,292338.46875,276535.96875,311902.96875,280527.46875,681697.3125,206000.390625,205751.390625,229920.875
625,292201.96875,276033.6875,311580.28125,280167.34375,681443.75,205816.75,205392.25,229542.140625
626,292123.09375,275748.03125,311333.625,279871.65625,681225.5625,205698.015625,205155.578125,229257.03125
627,292224.75,276127.65625,311507.96875,280067.0,681432.125,205791.984375,205343.96875,229432.171875
628,292245.75,276706.65625,311879.625,280526.21875,681802.6875,205984.03125,205754.171875,229886.0
629,292129.53125,276580.9375,311833.3125,280500.90625,681782.4375,205907.671875,205724.21875,229897.265625
630,292012.40625,276077.6875,311522.90625,280159.46875,681592.8125,205704.546875,205394.125,229561.1875
631,291993.09375,275860.875,311365.4375,279992.1875,681514.1875,205625.859375,205248.21875,229389.96875
632,292205.0,276463.03125,311758.65625,280405.15625,681902.3125,205959.359375,205692.03125,229857.296875
633,292365.40625,277125.53125,312241.46875,280966.0,682394.75,206225.421875,206195.125,230451.5
634,292439.78125,277158.15625,312347.0625,281092.34375,682498.5,206262.171875,206278.8125,230609.75
635,292357.53125,276770.125,312110.9375,280819.71875,682179.125,206127.625,206013.359375,230370.859375
636,292284.84375,276537.5,311927.71875,280630.0,681911.625,206047.15625,205862.4375,230218.6875
637,292290.125,276865.0,312102.6875,280862.8125,682059.375,206125.203125,206086.578125,230480.921875
638,292304.15625,277323.46875,312432.625,281290.09375,682465.5,206195.390625,206464.234375,230946.8125
639,292197.5,277157.96875,312374.59375,281252.0,682454.75,206084.609375,206407.90625,230962.015625
640,292136.25,276712.1875,312115.21875,280938.90625,682138.875,205927.96875,206115.375,230694.875
641,292094.65625,276463.09375,311888.125,280652.625,681819.1875,205798.25,205884.96875,230450.34375
642,292202.40625,276825.90625,312105.125,280897.59375,681984.0625,205945.765625,206123.953125,230707.390625
643,292279.84375,277308.375,312449.875,281322.8125,682354.875,206097.671875,206478.359375,231128.3125
644,292169.15625,277117.75,312379.84375,281279.90625,682318.4375,206018.09375,206415.859375,231110.609375
645,292094.84375,276606.53125,312071.125,280923.34375,681939.125,205835.703125,206076.203125,230761.828125
646,292101.8125,276390.6875,311874.0,280650.65625,681766.125,205761.765625,205897.9375,230540.734375
647,292242.46875,276748.6875,312085.625,280895.375,681927.6875,205901.0625,206123.234375,230765.328125
648,292277.875,277207.59375,312409.53125,281300.375,682268.1875,206051.359375,206462.8125,231164.53125
649,292130.875,276975.84375,312293.5,281176.71875,682196.75,205934.40625,206358.640625,231103.453125
650,292037.34375,276423.3125,311938.375,280740.4375,681818.25,205726.8125,205950.40625,230691.03125
651,292007.9375,276133.8125,311689.09375,280425.28125,681649.9375,205589.484375,205691.40625,230398.578125
652,292179.25,276567.90625,311966.34375,280728.34375,681895.625,205817.90625,205994.484375,230694.953125
653,292187.90625,277015.46875,312250.21875,281074.90625,682185.125,205939.0625,206308.125,231045.703125
654,292226.8125,276940.8125,312276.78125,281088.9375,682195.9375,205952.921875,206314.03125,231087.640625
655,292181.75,276452.75,311981.28125,280720.75,681863.625,205797.796875,205961.765625,230731.53125
656,292199.71875,276245.3125,311800.6875,280473.1875,681762.3125,205752.46875,205767.9375,230502.734375
657,292263.5625,276576.75,311981.5625,280688.5625,681929.75,205873.25,205973.75,230719.28125
658,292274.1875,277014.3125,312284.5625,281075.71875,682220.875,205942.359375,206287.484375,231093.796875
659,292206.5,276812.40625,312188.625,280979.84375,682079.25,205813.796875,206134.953125,230990.09375
660,292098.0625,276272.65625,311826.25,280555.53125,681739.5,205582.328125,205715.984375,230563.890625
661,292054.96875,276075.875,311647.71875,280339.25,681684.625,205521.890625,205570.875,230377.75
662,292057.75,276371.28125,311763.03125,280478.375,681807.4375,205587.59375,205726.1875,230526.25
663,292105.21875,276873.40625,312103.15625,280905.90625,682126.875,205742.0,206086.484375,230946.8125
664,291991.5,276719.0,312030.53125,280858.34375,682064.3125,205652.421875,206018.984375,230921.421875
665,291957.6875,276298.0625,311790.65625,280567.96875,681783.0625,205539.140625,205746.203125,230645.34375
666,292048.875,276214.5625,311729.78125,280475.96875,681765.0625,205588.5,205703.375,230578.1875
667,292174.96875,276630.84375,311973.3125,280736.5,681979.5625,205765.78125,205983.578125,230873.0625
668,292392.03125,277347.96875,312514.25,281360.28125,682550.625,206106.96875,206548.1875,231512.3125
669,292394.625,277311.65625,312571.8125,281443.6875,682647.9375,206114.5625,206606.75,231638.109375
670,292284.9375,276821.09375,312264.0,281091.625,682271.3125,205911.703125,206268.25,231321.796875
671,292282.25,276676.78125,312149.1875,280954.125,682104.3125,205904.90625,206207.734375,231238.28125
672,292334.71875,277051.3125,312372.4375,281240.40625,682339.25,206046.890625,206497.234375,231552.109375
673,292350.0,277540.375,312699.9375,281651.46875,682753.4375,206175.0,206861.65625,231997.703125
674,292341.0625,277425.5,312683.3125,281632.53125,682769.3125,206120.375,206823.203125,232023.1875
675,292304.59375,276954.75,312398.53125,281279.5625,682373.5625,205953.28125,206458.609375,231682.90625
676,292248.34375,276721.6875,312202.21875,281038.78125,682084.0625,205835.078125,206272.1875,231498.09375
677,292240.125,277025.65625,312346.78125,281224.3125,682219.875,205894.359375,206468.96875,231722.6875
678,292289.5625,277536.25,312675.34375,281621.625,682604.875,206032.578125,206809.703125,232142.015625
679,292238.15625,277476.625,312695.03125,281675.625,682715.125,206011.84375,206855.21875,232251.0
680,292132.03125,276998.5625,312389.5,281323.1875,682412.125,205813.4375,206566.96875,231957.296875
681,292108.875,276800.71875,312220.09375,281122.90625,682204.25,205749.6875,206465.21875,231806.640625
682,292161.71875,277180.34375,312443.34375,281404.53125,682463.6875,205908.65625,206787.53125,232118.859375
683,292215.8125,277721.59375,312834.21875,281890.90625,682997.375,206098.109375,207261.03125,232649.3125
684,292277.0625,277685.9375,312914.5,281983.8125,683171.4375,206108.75,207349.90625,232799.0625
685,292366.5625,277329.09375,312750.71875,281743.5625,682961.8125,206063.6875,207113.59375,232587.703125
686,292324.09375,277093.78125,312555.90625,281493.21875,682724.3125,205990.5625,206908.859375,232393.875
687,292449.0,277515.34375,312833.5,281808.03125,683039.3125,206203.96875,207204.34375,232746.40625
688,292499.59375,278052.6875,313214.46875,282277.78125,683568.25,206394.9375,207596.671875,233250.203125
689,292371.28125,277835.40625,313111.375,282193.5625,683585.75,206282.296875,207470.515625,233210.0625
690,292185.0625,277153.40625,312656.75,281677.9375,683091.3125,205899.71875,206962.046875,232697.40625
691,292109.875,276781.40625,312356.15625,281308.15625,682697.9375,205717.234375,206666.109375,232343.625
692,292175.84375,276998.375,312440.3125,281391.3125,682682.75,205771.328125,206741.390625,232398.78125
693,292231.46875,277457.65625,312743.46875,281755.09375,683001.8125,205930.921875,207037.421875,232742.375
694,292208.03125,277367.625,312753.9375,281781.125,683070.75,205934.671875,207043.6875,232793.078125
695,292142.0625,276881.1875,312456.125,281420.375,682726.125,205779.734375,206707.6875,232451.359375
696,292135.4375,276643.53125,312253.71875,281161.53125,682446.5625,205716.171875,206521.71875,232217.65625
697,292240.40625,276998.03125,312451.75,281379.59375,682626.625,205873.25,206764.203125,232443.9375
698,292298.34375,277513.375,312799.34375,281798.1875,683058.25,206052.0625,207155.984375,232875.953125
699,292234.6875,277335.0,312718.4375,281711.9375,683023.1875,205946.390625,207074.53125,232822.75
700,292109.78125,276758.96875,312336.5,281259.4375,682571.4375,205702.9375,206665.046875,232382.875
701,292051.125,276438.625,312065.78125,280929.625,682201.0,205572.046875,206417.46875,232068.421875
702,292192.84375,276801.59375,312285.625,281174.3125,682371.625,205745.40625,206680.25,232306.25
703,292313.4375,277353.34375,312683.75,281638.34375,682821.3125,205974.828125,207111.546875,232775.734375
704,292401.4375,277345.46875,312771.1875,281731.15625,682940.4375,206038.296875,207195.859375,232889.546875
705,292345.46875,276836.03125,312446.65625,281332.21875,682514.8125,205844.734375,206817.390625,232495.078125
706,292369.59375,276618.21875,312262.75,281084.28125,682201.3125,205808.078125,206635.265625,232255.921875
707,292417.96875,276904.25,312402.375,281240.65625,682277.0,205907.671875,206799.6875,232403.25
708,292450.15625,277364.6875,312708.0625,281612.3125,682609.0,206047.875,207105.546875,232757.046875
709,292381.75,277199.90625,312652.90625,281572.90625,682578.25,205970.265625,207025.984375,232723.25
710,292243.96875,276583.09375,312235.125,281078.03125,682073.1875,205683.359375,206540.046875,232228.90625
711,292213.40625,276289.84375,311981.90625,280764.375,681853.75,205553.890625,206275.59375,231914.734375
712,292280.0,276609.90625,312138.625,280941.3125,681988.9375,205687.46875,206450.640625,232070.578125
713,292327.40625,277080.5625,312445.9375,281315.40625,682270.75,205843.390625,206764.90625,232412.203125
714,292251.125,276886.625,312344.53125,281212.9375,682147.375,205726.890625,206639.734375,232290.6875
715,292166.625,276368.4375,312004.53125,280804.1875,681845.4375,205536.734375,206262.265625,231862.96875
716,292153.84375,276100.46875,311775.1875,280510.375,681698.375,205441.859375,206036.875,231555.5
717,292217.6875,276415.1875,311922.1875,280671.5,681867.1875,205576.515625,206206.46875,231685.59375
718,292255.25,276883.78125,312219.8125,281021.6875,682123.25,205694.53125,206516.984375,232008.078125
719,292139.46875,276620.375,312051.03125,280836.09375,681928.625,205506.0625,206301.6875,231795.734375
720,292060.6875,276092.53125,311704.5625,280417.65625,681644.375,205305.796875,205905.625,231347.265625
721,292044.875,275859.6875,311502.5,280160.71875,681517.3125,205244.8125,205735.390625,231086.109375
722,292138.5625,276198.1875,311681.84375,280358.3125,681739.9375,205389.5625,205965.796875,231258.40625
723,292227.96875,276733.21875,312047.4375,280799.15625,682072.75,205587.6875,206369.46875,231671.28125
724,292209.8125,276614.84375,312024.03125,280779.6875,682028.125,205536.109375,206348.8125,231652.953125
725,292213.21875,276188.0,311772.6875,280460.59375,681828.125,205414.421875,206064.3125,231325.359375
726,292236.1875,276001.6875,311621.96875,280264.78125,681770.1875,205395.640625,205946.65625,231131.984375
727,292294.3125,276256.21875,311733.34375,280386.375,681892.9375,205464.125,206078.984375,231230.421875
728,292336.0625,276723.375,312032.875,280750.0,682133.1875,205597.703125,206386.0,231566.046875
729,292243.53125,276541.59375,311933.0,280652.8125,682016.375,205487.203125,206261.109375,231455.984375
730,292136.34375,276007.3125,311591.8125,280251.375,681754.25,205282.1875,205879.15625,231043.015625
731,292087.15625,275690.8125,311319.03125,279908.125,681516.625,205148.703125,205590.734375,230692.8125
732,292124.53125,275854.0625,311349.1875,279929.9375,681551.3125,205153.0,205597.25,230651.328125
733,292154.65625,276245.59375,311580.125,280208.625,681782.875,205241.421875,205796.015625,230849.984375
734,292092.0625,276094.125,311510.28125,280142.46875,681742.125,205171.5,205704.546875,230745.65625
735,291989.25,275581.375,311172.0625,279738.875,681437.9375,204979.359375,205324.5625,230309.703125
736,291928.625,275318.25,310917.59375,279420.25,681179.1875,204883.15625,205076.640625,229973.359375
737,292064.8125,275719.78125,311146.65625,279667.1875,681462.1875,205103.109375,205343.96875,230189.453125
738,292121.40625,276213.21875,311475.875,280063.875,681817.75,205263.40625,205699.0,230552.984375
739,292032.625,276032.53125,311363.84375,279937.09375,681745.125,205140.65625,205556.84375,230399.46875
740,291998.375,275545.34375,311069.0625,279577.0625,681477.25,204958.796875,205216.828125,229994.1875
741,292020.90625,275357.78125,310906.0,279357.375,681313.0625,204944.140625,205075.03125,229757.96875
742,292123.09375,275706.1875,311101.53125,279566.5,681545.3125,205091.65625,205329.65625,229951.09375
743,292325.15625,276389.09375,311605.40625,280147.65625,682023.9375,205409.953125,205897.84375,230512.03125
744,292271.0625,276325.5,311604.78125,280168.40625,682021.5625,205407.890625,205933.609375,230540.015625
745,292134.0,275825.46875,311282.125,279804.15625,681799.9375,205204.765625,205612.546875,230178.359375
746,292092.625,275559.1875,311060.21875,279532.1875,681619.0,205098.1875,205405.65625,229908.984375
747,292117.46875,275807.75,311155.6875,279645.625,681737.0,205150.40625,205498.28125,229988.203125
748,292159.75,276304.0625,311472.03125,280036.4375,681993.6875,205291.125,205804.5,230332.765625
749,292116.3125,276260.6875,311498.5625,280094.71875,681982.9375,205267.96875,205827.203125,230386.59375
750,292023.15625,275779.3125,311193.34375,279735.5,681716.0625,205072.171875,205473.421875,230016.984375
751,291967.8125,275476.0625,310915.375,279393.78125,681418.1875,204921.875,205164.609375,229647.734375
752,292053.90625,275880.4375,311145.3125,279669.78125,681679.0625,205109.265625,205449.109375,229902.359375
753,292133.5625,276498.5,311575.90625,280199.0625,682090.5,205335.46875,205937.0,230420.484375
754,292070.78125,276451.125,311592.28125,280250.3125,682083.0,205283.265625,205971.609375,230486.546875
755,291961.375,276010.4375,311318.40625,279940.59375,681862.6875,205088.796875,205690.6875,230195.53125
756,291939.53125,275834.21875,311165.34375,279750.34375,681821.5,205029.96875,205578.84375,230034.15625
757,292009.5625,276191.40625,311362.6875,279984.75,682005.9375,205153.171875,205822.109375,230271.96875
758,292098.0625,276786.03125,311774.03125,280480.53125,682393.625,205367.5625,206242.328125,230761.296875
759,292096.28125,276798.28125,311872.375,280613.75,682517.8125,205402.078125,206353.109375,230936.625
760,292112.375,276435.84375,311711.4375,280413.5625,682285.125,205314.28125,206185.109375,230778.109375
761,292039.3125,276167.25,311486.25,280146.40625,681959.25,205212.71875,205987.34375,230553.25
762,292010.4375,276401.5,311577.96875,280273.375,682003.6875,205235.78125,206128.953125,230698.09375
763,292098.6875,276962.34375,311984.59375,280769.65625,682442.9375,205451.796875,206563.484375,231199.84375
764,292197.03125,277041.5625,312151.15625,280966.625,682645.0,205590.28125,206742.109375,231430.515625
765,292175.59375,276631.375,311935.5,280709.21875,682362.5,205479.421875,206507.6875,231204.3125
766,292096.0,276343.9375,311700.71875,280436.25,682039.3125,205353.53125,206292.65625,230973.28125
767,292145.0,276641.84375,311862.09375,280628.65625,682161.25,205478.171875,206479.96875,231184.8125
768,292192.03125,277175.40625,312227.15625,281074.71875,682581.0,205676.65625,206847.875,231641.515625
769,292110.21875,277006.0625,312164.125,281019.46875,682524.25,205555.5,206732.546875,231601.453125
770,292014.28125,276434.59375,311802.65625,280586.03125,682062.4375,205312.578125,206284.609375,231156.03125
771,291972.0,276133.375,311554.09375,280280.4375,681865.8125,205178.390625,206029.359375,230851.328125
772,292004.375,276330.15625,311652.4375,280396.84375,681942.75,205237.296875,206153.015625,230957.546875
773,292059.0,276870.53125,312017.84375,280841.71875,682306.1875,205450.8125,206552.03125,231398.0625
774,291994.53125,276794.09375,312013.03125,280857.1875,682331.8125,205419.78125,206560.53125,231443.921875
775,291881.53125,276269.71875,311684.90625,280474.875,681967.75,205238.5625,206209.0625,231075.828125
776,291838.0625,275988.8125,311459.78125,280195.75,681820.125,205155.140625,206006.46875,230824.515625
777,291905.3125,276269.71875,311598.1875,280342.125,681945.4375,205260.1875,206154.984375,230973.90625
778,291993.625,276806.78125,311966.875,280780.84375,682309.1875,205450.625,206521.28125,231408.34375
779,292022.34375,276792.9375,312016.59375,280830.5625,682356.125,205499.984375,206531.375,231474.140625
780,292015.1875,276382.09375,311818.65625,280577.625,682100.4375,205411.109375,206322.53125,231247.84375
781,291974.6875,276081.25,311595.03125,280298.65625,681918.875,205276.28125,206148.625,231006.265625
782,291985.6875,276285.53125,311656.90625,280366.875,681984.8125,205302.84375,206238.125,231070.015625
783,292087.15625,276860.25,312048.15625,280829.21875,682367.875,205537.984375,206648.59375,231519.734375
784,292011.78125,276756.4375,312026.4375,280830.28125,682367.875,205470.03125,206620.96875,231538.609375
785,291912.46875,276244.59375,311720.21875,280482.5625,682035.375,205260.8125,206282.5625,231205.828125
786,291888.59375,275949.28125,311484.90625,280192.0,681868.625,205148.078125,206031.5,230925.53125
787,291925.40625,276190.59375,311589.21875,280307.96875,681970.625,205230.234375,206147.015625,231039.984375
788,291999.625,276683.125,311914.40625,280695.09375,682244.625,205389.203125,206460.484375,231407.53125
789,291921.21875,276575.03125,311883.65625,280683.28125,682202.1875,205330.109375,206416.671875,231398.328125
790,291822.59375,276080.625,311578.6875,280327.46875,681900.4375,205148.703125,206087.390625,231051.15625
791,291802.125,275845.40625,311376.4375,280073.71875,681809.0,205073.0625,205905.0,230817.890625
792,291876.34375,276176.28125,311548.1875,280273.53125,681977.125,205223.359375,206115.640625,231019.421875
793,291926.03125,276704.0625,311900.5625,280703.5,682336.0,205387.859375,206492.671875,231447.9375
794,291840.3125,276592.9375,311874.625,280700.46875,682335.375,205304.0,206468.078125,231468.78125
795,291717.1875,276044.15625,311517.53125,280284.28125,681942.4375,205065.546875,206064.59375,231056.515625
796,291697.0,275788.25,311305.09375,280012.28125,681804.875,204978.109375,205854.03125,230796.875
797,291807.21875,276134.1875,311514.59375,280247.71875,682006.625,205143.25,206100.96875,231036.5
798,291930.25,276745.375,311951.15625,280762.875,682462.375,205401.0,206558.375,231551.390625
799,291927.84375,276749.5625,312023.125,280858.96875,682568.6875,205439.625,206623.375,231670.125
800,291830.125,276264.1875,311716.625,280494.375,682191.0,205270.296875,206281.671875,231330.640625
801,291765.03125,275992.28125,311487.40625,280216.15625,681925.1875,205175.875,206075.3125,231082.53125
802,291828.6875,276271.5,311639.125,280389.78125,682057.6875,205281.296875,206266.203125,231267.609375
803,291918.1875,276801.4375,311994.25,280810.0,682426.3125,205449.46875,206618.640625,231677.09375
804,291826.0,276627.0,311914.9375,280741.0625,682338.5,205328.671875,206502.953125,231604.40625
805,291700.65625,275981.125,311488.375,280243.25,681848.125,204999.21875,205990.921875,231077.359375
806,291628.6875,275629.3125,311182.625,279866.5625,681587.6875,204839.890625,205657.515625,230690.3125
807,291604.53125,275921.21875,311328.4375,280064.15625,681809.6875,204962.28125,205883.0,230903.640625
808,291590.9375,276372.53125,311626.53125,280446.28125,682136.9375,205079.953125,206223.375,231295.234375
809,291488.5625,276217.25,311541.65625,280369.375,682061.0,204947.71875,206110.984375,231232.390625
810,291465.34375,275787.5625,311288.5625,280055.5625,681801.4375,204823.703125,205804.140625,230921.15625
811,291685.53125,275813.21875,311357.40625,280075.25,681866.125,205050.078125,205900.171875,230972.921875
812,291802.03125,276172.71875,311570.46875,280311.1875,682102.25,205237.21875,206167.671875,231229.703125
813,291938.75,276766.1875,311996.5625,280811.5,682551.9375,205475.03125,206630.359375,231740.75
814,291800.59375,276562.53125,311862.09375,280678.5625,682407.4375,205313.65625,206471.03125,231620.953125
815,291665.0625,276013.3125,311508.40625,280267.90625,681994.25,205074.9375,206082.109375,231220.21875
816,291607.5625,275726.84375,311273.34375,279981.53125,681846.1875,204972.125,205871.109375,230961.390625
817,291689.125,276066.5,311455.75,280191.375,682043.375,205137.796875,206106.609375,231181.0625
818,291759.03125,276640.75,311855.65625,280681.96875,682494.375,205373.828125,206551.3125,231677.09375
819,291649.25,276477.0625,311768.9375,280599.875,682432.125,205230.0625,206447.96875,231623.1875
820,291562.875,275957.59375,311431.78125,280190.75,682036.875,205014.6875,206063.25,231215.9375
821,291520.40625,275545.875,311100.90625,279773.59375,681724.6875,204829.421875,205701.6875,230783.65625
822,291614.0,275818.21875,311231.4375,279906.4375,681841.0,204942.625,205844.90625,230892.90625
823,291662.46875,276343.21875,311578.3125,280328.0,682166.0625,205131.453125,206225.15625,231300.25
824,291585.59375,276257.375,311559.625,280331.75,682158.5625,205084.0625,206216.21875,231318.75
825,291489.65625,275745.53125,311238.03125,279955.6875,681838.125,204893.625,205858.0625,230942.890625
826,291424.84375,275447.53125,310994.5,279657.71875,681734.5,204786.953125,205639.28125,230664.65625
827,291472.21875,275700.28125,311108.59375,279778.5,681872.4375,204881.546875,205778.125,230778.28125
828,291598.625,276288.40625,311523.96875,280268.34375,682276.1875,205124.65625,206211.84375,231258.671875
829,291584.875,276246.21875,311555.875,280314.5,682318.875,205119.28125,206233.828125,231318.484375
830,291499.03125,275754.65625,311250.5625,279949.0,681951.25,204942.078125,205884.4375,230958.53125
831,291529.78125,275572.0,311107.0625,279755.6875,681889.0625,204941.015625,205751.21875,230788.03125
832,291589.78125,275851.75,311234.90625,279902.15625,681987.625,205056.34375,205896.140625,230931.265625
833,291631.71875,276335.34375,311548.28125,280293.84375,682278.1875,205195.8125,206216.046875,231302.921875
834,291535.0625,276182.90625,311475.6875,280237.96875,682188.25,205062.78125,206121.359375,231249.015625
835,291416.34375,275668.375,311148.90625,279866.125,681875.0625,204857.765625,205757.109375,230872.515625
836,291377.25,275383.59375,310911.53125,279579.375,681737.4375,204754.140625,205515.265625,230579.171875
837,291411.96875,275617.40625,310998.4375,279676.84375,681840.0625,204823.34375,205617.640625,230660.453125
838,291488.5625,276140.25,311342.1875,280092.75,682127.875,205004.84375,205958.734375,231041.328125
839,291439.125,276100.28125,311361.25,280133.71875,682135.0625,204986.875,205967.9375,231088.265625
840,291342.40625,275643.96875,311072.28125,279791.8125,681858.5625,204822.8125,205650.1875,230752.53125
841,291327.09375,275409.0,310883.09375,279551.125,681786.6875,204784.71875,205480.046875,230475.015625
842,291381.125,275683.125,311029.28125,279724.84375,681942.8125,204897.015625,205670.03125,230558.875
843,291478.65625,276276.34375,311425.8125,280188.15625,682327.375,205145.75,206068.15625,230957.015625
844,291445.5625,276258.8125,311469.34375,280255.03125,682391.25,205158.0,206104.90625,231004.9375
845,291369.5,275784.15625,311188.40625,279927.625,682058.125,204943.421875,205801.546875,230673.765625
846,291252.0,275391.9375,310869.6875,279559.8125,681809.0,204748.875,205497.03125,230316.3125
847,291262.375,275579.5,310929.59375,279625.625,681879.6875,204771.84375,205573.734375,230384.171875
848,291416.0625,276228.3125,311393.96875,280164.75,682330.75,205059.203125,206055.28125,230932.953125
849,291415.625,276232.875,311475.875,280279.53125,682447.6875,205098.8125,206149.609375,231096.84375
850,291311.375,275732.375,311168.21875,279918.59375,682068.875,204914.71875,205814.34375,230823.34375
851,291380.5625,275580.46875,311057.1875,279753.1875,681875.375,204940.390625,205718.40625,230847.671875
852,291446.65625,275863.53125,311203.4375,279918.78125,681979.375,205061.0,205895.34375,231198.234375
853,291459.6875,276305.65625,311487.9375,280274.78125,682274.8125,205164.078125,206174.828125,231677.71875
854,291390.6875,276221.25,311482.46875,280295.0,682297.6875,205104.890625,206158.46875,231826.578125
855,291298.78125,275711.8125,311176.96875,279944.25,681950.0625,204904.53125,205809.15625,231580.890625
856,291241.28125,275395.78125,310918.5,279627.59375,681775.25,204783.734375,205545.3125,231367.03125
857,291268.375,275540.0625,310930.75,279623.71875,681822.8125,204791.515625,205536.453125,231424.4375
858,291361.96875,276061.75,311278.8125,280034.1875,682120.625,204966.671875,205878.265625,231876.375
859,291304.9375,276016.4375,311304.90625,280090.34375,682152.75,204947.796875,205918.5,232015.765625
860,291239.59375,275537.75,311024.71875,279755.78125,681864.0625,204770.515625,205604.671875,231753.71875
861,291211.9375,275263.625,310805.84375,279476.9375,681759.875,204708.28125,205388.765625,231553.09375
862,291190.75,275430.90625,310838.46875,279516.625,681817.75,204739.21875,205439.625,231644.375
863,291202.03125,275873.90625,311116.0,279862.71875,682063.1875,204839.4375,205712.765625,232023.015625
864,291181.28125,275827.875,311137.1875,279898.9375,682073.625,204818.34375,205708.390625,232110.71875
865,291161.15625,275407.5625,310887.5625,279582.53125,681825.0,204702.375,205409.234375,231844.90625
866,291247.8125,275212.65625,310766.15625,279402.71875,681801.0,204741.359375,205299.0,231716.171875
867,291402.03125,275588.53125,311005.21875,279665.3125,682031.125,204990.1875,205585.90625,232015.046875
868,291492.5,276193.09375,311416.3125,280156.15625,682469.125,205240.078125,206037.40625,232559.546875
869,291347.5,276032.625,311322.96875,280071.9375,682401.75,205105.34375,205926.1875,232547.203125
870,291215.78125,275438.40625,310940.75,279620.15625,681969.375,204839.265625,205470.125,232130.296875
871,291168.78125,275052.96875,310642.9375,279253.5,681725.1875,204670.546875,205133.765625,231786.625
872,291183.625,275125.3125,310602.28125,279196.625,681668.5,204649.09375,205047.578125,231706.953125
873,291264.0625,275595.6875,310886.40625,279533.25,681845.375,204802.515625,205305.078125,232010.578125
874,291187.1875,275519.0625,310861.0,279521.0,681793.4375,204762.734375,205278.25,232018.359375
875,291070.0625,275061.125,310565.78125,279186.8125,681600.3125,204592.234375,204978.296875,231702.671875
876,291032.25,274855.75,310391.71875,278977.6875,681530.9375,204520.34375,204854.546875,231536.09375
877,291178.15625,275204.71875,310593.78125,279191.71875,681733.5,204701.578125,205109.453125,231775.890625
878,291232.59375,275712.4375,310918.5,279581.71875,682022.625,204886.03125,205468.6875,232183.3125
879,291156.875,275633.5,310909.125,279594.21875,682017.125,204836.046875,205459.5625,232235.53125
880,291075.6875,275178.96875,310627.40625,279257.0,681779.0,204647.390625,205137.4375,231928.421875
881,291101.625,275004.15625,310494.71875,279072.1875,681741.0,204643.1875,205006.09375,231777.59375
882,291204.96875,275314.75,310683.09375,279286.03125,681942.75,204808.234375,205244.09375,232018.71875
883,291279.53125,275850.3125,311058.4375,279746.65625,682323.875,205041.6875,205674.59375,232503.21875
884,291217.40625,275743.84375,311024.90625,279737.71875,682274.8125,204954.234375,205626.3125,232509.5625
885,291114.0625,275201.9375,310669.59375,279305.34375,681874.625,204708.46875,205187.328125,232084.4375
886,291093.75,274974.5625,310485.15625,279069.6875,681757.75,204621.5625,204978.734375,231864.671875
887,291131.21875,275280.0,310660.84375,279285.0625,681943.4375,204753.875,205205.46875,232108.84375
888,291201.03125,275834.125,311043.5,279750.96875,682358.5625,204993.21875,205640.078125,232608.09375
889,291143.375,275717.46875,311002.09375,279718.59375,682308.5,204893.359375,205567.125,232595.75
890,291010.4375,275055.03125,310536.28125,279158.1875,681746.375,204528.390625,204972.390625,232002.453125
891,290929.96875,274764.09375,310273.875,278842.5,681519.1875,204385.96875,204688.703125,231669.40625
892,291001.40625,275131.46875,310479.59375,279083.90625,681775.8125,204572.734375,204965.6875,231927.96875
893,291133.53125,275722.09375,310893.1875,279571.4375,682187.1875,204852.671875,205441.421875,232443.140625
894,291083.90625,275653.625,310886.3125,279576.25,682164.75,204813.96875,205438.5625,232478.09375
895,291023.125,275223.125,310620.6875,279257.15625,681852.625,204646.234375,205145.484375,232170.625
896,291006.40625,275014.0,310453.0625,279045.0,681763.375,204585.4375,205005.5625,231977.6875
897,291045.03125,275256.65625,310561.84375,279175.96875,681858.6875,204680.828125,205161.578125,232115.546875
898,291086.15625,275676.15625,310843.40625,279522.625,682120.3125,204813.96875,205488.8125,232469.15625
899,291051.90625,275588.96875,310834.375,279523.34375,682088.875,204749.046875,205474.140625,232483.09375
900,290992.1875,275117.8125,310548.53125,279182.0625,681802.625,204586.0625,205127.6875,232137.359375
901,291090.0,275006.3125,310481.46875,279064.21875,681812.125,204657.140625,205055.453125,232029.984375
902,291146.875,275284.8125,310626.40625,279240.0,681936.3125,204812.078125,205238.90625,232212.109375
903,291166.4375,275746.875,310924.21875,279614.0625,682238.125,204978.828125,205572.671875,232600.3125
904,291105.75,275662.75,310907.9375,279619.625,682207.25,204891.5625,205533.6875,232612.828125
905,290970.65625,275132.65625,310562.125,279218.71875,681857.3125,204674.9375,205128.765625,232201.015625
906,290937.5625,274860.84375,310349.78125,278956.59375,681731.25,204583.109375,204913.734375,231938.78125
907,290999.34375,275114.5,310475.65625,279101.96875,681837.125,204691.75,205061.890625,232076.390625
908,291040.375,275552.6875,310740.5,279420.78125,682000.125,204796.171875,205299.0,232361.234375
909,291007.46875,275518.625,310747.90625,279442.15625,681933.8125,204761.484375,205248.390625,232357.84375
910,290950.71875,275147.65625,310550.59375,279216.125,681773.1875,204676.984375,205017.0,232133.34375
911,290960.625,274952.125,310402.1875,279026.59375,681747.8125,204615.296875,204889.59375,231956.578125
912,291014.8125,275196.46875,310513.84375,279154.4375,681858.875,204697.828125,205027.28125,232080.5
913,291061.9375,275737.9375,310876.65625,279599.25,682206.625,204923.75,205417.640625,232525.03125
914,290961.4375,275694.84375,310879.34375,279640.28125,682240.875,204872.34375,205434.71875,232600.046875
915,290873.1875,275229.90625,310595.46875,279318.59375,681908.1875,204673.40625,205135.46875,232298.828125
916,290843.59375,274983.25,310404.6875,279088.375,681774.1875,204605.28125,204980.609375,232094.796875
917,290920.21875,275238.9375,310542.8125,279248.9375,681894.5625,204729.375,205174.1875,232264.671875
918,291087.5,275852.1875,310990.03125,279771.78125,682341.0625,205021.03125,205655.640625,232783.59375
919,291140.4375,275925.9375,311130.03125,279938.8125,682500.8125,205123.046875,205797.171875,232969.921875
920,291025.4375,275408.28125,310804.25,279550.40625,682092.125,204937.609375,205422.828125,232597.453125
921,290953.375,275086.34375,310543.15625,279230.4375,681849.5,204834.609375,205159.515625,232297.671875
922,291032.0625,275351.875,310682.03125,279378.75,681964.8125,204978.65625,205324.125,232455.921875
923,291120.125,275897.25,311054.9375,279823.03125,682345.25,205200.5625,205721.0,232896.421875
924,291054.25,275852.375,311078.09375,279870.59375,682399.5,205170.515625,205742.8125,232958.828125
925,290925.75,275275.59375,310708.5625,279438.3125,681973.3125,204902.390625,205311.328125,232524.9375
926,290881.9375,274917.15625,310423.8125,279082.1875,681752.9375,204741.09375,204996.53125,232168.203125
927,290920.21875,275055.03125,310444.375,279089.09375,681785.25,204772.203125,205003.765625,232140.40625
928,290999.25,275597.125,310799.84375,279510.53125,682094.6875,204995.546875,205370.34375,232530.484375
929,290946.78125,275578.15625,310835.53125,279567.21875,682120.1875,204998.40625,205403.78125,232595.21875
930,290877.21875,275106.0,310559.09375,279236.25,681836.5,204846.0625,205088.265625,232262.4375
931,290866.84375,274846.71875,310354.53125,278971.15625,681729.375,204778.109375,204888.078125,232002.453125
932,290904.65625,275044.03125,310424.875,279045.8125,681812.75,204844.453125,204987.046875,232063.59375
933,290972.4375,275570.5625,310768.46875,279462.8125,682123.0,205049.640625,205372.84375,232464.953125
934,290948.46875,275590.75,310827.65625,279551.9375,682179.1875,205057.5,205443.46875,232557.9375
935,290883.46875,275160.90625,310568.46875,279239.1875,681897.75,204915.171875,205147.265625,232246.796875
936,290822.21875,274869.53125,310321.0,278930.375,681727.1875,204791.25,204882.890625,231938.515625
937,290973.5,275209.96875,310523.3125,279136.8125,681905.1875,205002.796875,205102.921875,232142.90625
938,291085.71875,275731.3125,310898.375,279585.65625,682256.625,205197.875,205518.75,232592.359375
939,290916.8125,275559.03125,310792.15625,279502.9375,682148.375,205041.859375,205412.546875,232516.359375
940,290785.03125,275061.65625,310473.6875,279140.03125,681847.625,204840.875,205071.71875,232145.9375
941,290867.1875,274956.59375,310403.875,279020.875,681839.375,204901.046875,205031.125,232035.609375
942,290988.78125,275271.75,310592.78125,279224.875,682006.5625,205063.765625,205264.125,232240.359375
943,291118.6875,275823.03125,310993.0625,279691.40625,682412.1875,205301.234375,205698.90625,232711.71875
944,291013.8125,275722.28125,310957.9375,279681.03125,682406.125,205225.953125,205656.078125,232722.171875
945,290866.125,275095.53125,310525.125,279173.84375,681922.25,204909.984375,205112.765625,232189.84375
946,290830.28125,274807.8125,310286.3125,278870.5625,681740.75,204802.25,204833.453125,231866.640625
947,290886.59375,275000.9375,310358.375,278944.5,681786.875,204876.640625,204907.84375,231901.953125
948,290936.125,275464.0625,310653.6875,279303.03125,682010.9375,205047.5,205236.140625,232226.765625
949,290899.03125,275471.3125,310706.78125,279391.46875,682063.1875,205056.96875,205322.234375,232316.796875
950,290794.78125,274997.90625,310406.8125,279055.1875,681806.8125,204856.875,205005.375,231970.53125
951,290756.78125,274760.8125,310208.96875,278813.625,681700.1875,204762.375,204821.03125,231731.984375
952,290870.6875,275092.6875,310402.90625,279020.0625,681859.75,204940.296875,205060.1875,231950.5
953,290919.0625,275568.0625,310711.53125,279391.53125,682157.5,205109.8125,205396.984375,232323.953125
954,290936.03125,275555.34375,310748.71875,279436.34375,682171.3125,205085.3125,205403.421875,232367.046875
955,290884.8125,275156.34375,310515.46875,279148.625,681884.4375,204965.421875,205113.296875,232066.1875
956,290813.09375,274848.59375,310287.1875,278878.0,681745.875,204839.0,204890.9375,231800.03125
957,290884.90625,275095.71875,310426.0625,279033.65625,681872.0,204965.0625,205075.828125,231954.171875
958,290960.09375,275577.625,310756.59375,279423.65625,682173.5,205167.65625,205444.546875,232333.25
959,291007.3125,275667.375,310900.96875,279600.40625,682347.75,205269.9375,205608.875,232530.75
960,290913.25,275215.96875,310636.25,279300.34375,682051.0,205092.203125,205312.40625,232245.546875
961,290870.59375,274913.78125,310396.8125,279007.0,681872.8125,204959.875,205045.796875,231958.453125
962,290897.59375,275038.59375,310403.96875,279007.0,681892.5625,204942.703125,205021.390625,231927.796875
963,290969.46875,275523.1875,310708.5,279375.8125,682135.9375,205108.828125,205319.46875,232262.625
964,290900.71875,275424.8125,310668.0625,279349.34375,682053.125,205024.78125,205243.296875,232216.578125
965,290782.53125,274857.4375,310291.3125,278905.4375,681676.75,204745.390625,204796.96875,231728.0625
966,290734.53125,274576.625,310056.53125,278616.84375,681498.5625,204633.1875,204578.46875,231422.46875
967,290797.46875,274880.0625,310221.03125,278812.53125,681735.5625,204811.546875,204833.28125,231621.65625
968,290819.46875,275372.78125,310542.0,279219.71875,682066.125,204948.34375,205223.359375,232031.953125
969,290782.53125,275390.03125,310587.15625,279291.125,682123.0,204915.53125,205273.953125,232114.921875
970,290603.90625,274831.96875,310195.03125,278848.125,681761.875,204616.28125,204828.984375,231661.890625
971,290665.3125,274642.0625,310076.46875,278682.71875,681720.5625,204615.75,204721.15625,231506.0625
972,290814.0,274954.53125,310263.96875,278878.78125,681853.3125,204797.953125,204939.40625,231697.84375
973,290907.4375,275497.25,310618.90625,279301.59375,682171.5,204985.796875,205311.15625,232100.890625
974,291011.59375,275649.25,310821.59375,279534.15625,682372.75,205126.703125,205517.421875,232343.796875
975,290929.25,275176.90625,310551.84375,279217.5625,682033.625,204951.921875,205207.984375,232029.984375
976,290840.5625,274869.15625,310307.59375,278929.5625,681860.625,204839.359375,204974.71875,231756.390625
977,290856.1875,275061.375,310380.1875,279014.78125,681940.5,204907.484375,205076.90625,231852.6875
978,290915.375,275575.21875,310718.3125,279423.09375,682265.5,205070.828125,205413.96875,232248.21875
979,290866.03125,275572.25,310762.65625,279493.90625,682322.25,205028.359375,205431.140625,232321.71875
980,290756.34375,275052.71875,310428.90625,279107.9375,681939.4375,204790.09375,205032.375,231916.078125
981,290719.6875,274777.25,310219.25,278853.21875,681840.25,204690.140625,204845.96875,231675.3125
982,290759.65625,274976.0,310300.625,278947.1875,681903.375,204762.90625,204974.71875,231769.265625
983,290790.84375,275357.40625,310518.59375,279208.25,682001.4375,204820.484375,205162.015625,231979.921875
984,290754.71875,275357.40625,310552.28125,279270.03125,681985.3125,204803.59375,205172.84375,232019.4375
985,290669.96875,274936.3125,310309.46875,278998.59375,681802.875,204678.328125,204916.25,231755.765625
986,290645.65625,274675.3125,310108.5625,278751.84375,681731.4375,204607.703125,204737.78125,231528.140625
987,290713.5,274910.28125,310221.5625,278879.5,681862.1875,204699.875,204900.859375,231654.5625
988,290813.1875,275496.8125,310620.78125,279361.875,682256.25,204938.59375,205345.75,232124.046875
989,290710.75,275426.6875,310597.875,279365.4375,682244.8125,204861.890625,205322.0625,232137.0
990,290617.5625,274922.34375,310294.1875,279006.65625,681889.6875,204685.03125,204977.21875,231777.234375
991,290703.59375,274722.8125,310172.40625,278822.75,681817.5625,204707.203125,204866.359375,231607.265625
992,290842.0625,275006.3125,310344.875,279002.09375,681946.1875,204884.234375,205069.125,231781.609375
993,290888.9375,275526.21875,310684.6875,279416.9375,682267.4375,205049.375,205421.484375,232181.625
994,290800.6875,275455.59375,310675.59375,279434.375,682255.5,204971.59375,205391.890625,232206.203125
995,290687.03125,274917.71875,310336.8125,279035.96875,681897.5,204753.515625,205001.1875,231811.734375
996,290649.21875,274636.96875,310116.0,278762.84375,681798.3125,204679.671875,204798.578125,231563.1875
997,290771.09375,274954.71875,310306.25,278976.4375,682012.625,204849.359375,205042.75,231796.8125
998,290888.03125,275576.625,310747.90625,279505.0,682482.3125,205127.0625,205529.3125,232334.59375
999,290800.5,275417.59375,310632.75,279382.59375,682301.6875,204963.8125,205339.765625,232186.0
1000,290678.46875,274803.96875,310195.8125,278865.21875,681770.5,204647.578125,204783.203125,231603.25
1001,290607.90625,274475.21875,309942.34375,278569.28125,681602.875,204516.140625,204542.875,231288.625
1002,290643.9375,274754.28125,310078.4375,278732.0,681797.4375,204639.4375,204738.953125,231447.234375
1003,290717.53125,275329.875,310470.3125,279209.34375,682176.25,204857.6875,205161.390625,231906.421875
1004,290631.15625,275282.40625,310480.59375,279255.46875,682187.0,204811.1875,205160.234375,231952.5625
1005,290563.84375,274864.875,310241.25,278981.4375,681903.375,204681.453125,204888.890625,231679.328125
1006,290538.1875,274609.0,310033.71875,278718.3125,681776.625,204622.546875,204701.046875,231434.0
1007,290603.34375,274829.1875,310130.125,278812.0,681884.1875,204689.953125,204844.890625,231531.09375
1008,290779.125,275479.53125,310594.75,279346.75,682331.1875,204967.734375,205341.828125,232045.359375
1009,290817.5,275578.15625,310746.75,279532.0,682517.875,205037.03125,205506.15625,232243.84375
1010,290737.46875,275121.75,310483.09375,279217.125,682185.3125,204885.84375,205208.875,231945.578125
1011,290721.1875,274819.53125,310250.375,278916.78125,681902.25,204815.390625,204966.765625,231660.46875
1012,290731.46875,274965.90625,310272.4375,278935.5625,681911.8125,204850.796875,204998.671875,231670.65625
1013,290800.9375,275540.59375,310652.59375,279390.1875,682293.125,205066.890625,205407.984375,232112.78125
1014,290744.25,275573.875,310728.875,279505.28125,682432.5,205078.96875,205508.75,232245.984375
1015,290650.46875,275091.59375,310450.53125,279177.15625,682124.75,204901.40625,205211.46875,231934.9375
1016,290634.75,274772.15625,310211.65625,278864.3125,681900.0,204803.40625,204966.765625,231629.53125
1017,290662.0,274879.1875,310201.625,278831.21875,681861.125,204795.28125,204937.25,231564.171875
1018,290722.53125,275319.78125,310454.75,279116.09375,681976.9375,204892.90625,205131.71875,231784.03125
1019,290692.40625,275375.21875,310537.90625,279224.875,682048.75,204929.5625,205208.328125,231888.453125
1020,290573.6875,274874.625,310241.78125,278881.46875,681780.625,204742.4375,204889.328125,231546.296875
1021,290529.6875,274521.09375,309976.875,278551.84375,681615.25,204598.84375,204633.09375,231219.234375
1022,290606.21875,274756.25,310086.9375,278669.3125,681751.375,204728.046875,204777.03125,231325.640625
1023,290713.78125,275366.71875,310483.90625,279138.78125,682125.625,204973.375,205192.875,231772.21875
1024,290587.25,275330.6875,310482.28125,279169.1875,682160.1875,204923.65625,205196.171875,231814.0625
1025,290453.0625,274802.375,310130.5625,278748.09375,681799.9375,204681.453125,204780.4375,231385.53125
1026,290447.34375,274472.375,309897.375,278449.5625,681662.1875,204591.25,204536.53125,231083.15625
1027,290583.0625,274751.59375,310069.3125,278632.21875,681866.125,204762.46875,204747.265625,231259.390625
1028,290771.53125,275423.125,310553.625,279188.78125,682329.75,205077.796875,205256.265625,231799.484375
1029,290813.5625,275500.03125,310667.71875,279322.34375,682432.6875,205122.140625,205348.796875,231932.984375
1030,290728.34375,275000.3125,310360.96875,278967.40625,682042.5625,204930.546875,204980.796875,231558.625
1031,290620.34375,274614.34375,310039.71875,278583.46875,681780.875,204771.671875,204646.40625,231175.703125
1032,290672.90625,274821.6875,310121.875,278670.84375,681870.6875,204856.34375,204746.015625,231248.828125
1033,290761.53125,275397.71875,310506.5,279137.90625,682221.125,205069.578125,205148.515625,231686.65625
1034,290710.75,275418.125,310556.59375,279225.0625,682279.9375,205039.796875,205197.78125,231767.578125
1035,290647.25,274966.34375,310306.0625,278927.625,681961.3125,204901.671875,204912.9375,231466.890625
1036,290594.875,274648.25,310064.3125,278631.59375,681771.0,204799.125,204677.890625,231174.1875
1037,290612.9375,274802.28125,310104.625,278681.03125,681843.375,204841.765625,204752.453125,231208.25
1038,290704.9375,275342.9375,310458.40625,279104.8125,682148.4375,205009.40625,205106.328125,231587.421875
1039,290677.65625,275421.875,310565.625,279250.8125,682279.1875,205055.71875,205218.625,231732.890625
1040,290569.65625,274920.9375,310259.46875,278892.84375,681955.875,204849.1875,204867.515625,231376.859375
1041,290504.84375,274507.40625,309930.28125,278483.78125,681667.0625,204646.5,204490.21875,230949.765625
1042,290549.53125,274674.625,309972.3125,278522.40625,681706.5,204692.90625,204525.71875,230949.5
1043,290592.625,275226.96875,310335.65625,278976.15625,682051.6875,204892.640625,204914.015625,231366.859375
1044,290603.625,275344.09375,310483.4375,279165.15625,682228.5625,204983.921875,205073.15625,231559.25
1045,290541.75,274892.9375,310227.46875,278859.65625,681926.4375,204816.46875,204796.796875,231246.875
1046,290534.78125,274585.75,310004.9375,278579.09375,681774.1875,204724.640625,204585.171875,230965.328125
1047,290642.25,274830.28125,310124.75,278703.5625,681880.125,204844.453125,204719.28125,231071.09375
1048,290675.5,275321.75,310443.9375,279096.78125,682168.375,205032.375,205053.03125,231443.203125
1049,290690.96875,275355.34375,310532.4375,279205.75,682257.1875,205052.40625,205131.796875,231555.234375
1050,290586.09375,274832.25,310213.625,278834.0,681908.6875,204832.921875,204762.640625,231173.90625
1051,290507.96875,274451.71875,309914.0,278469.65625,681690.125,204701.046875,204454.015625,230808.5
1052,290645.5625,274710.28125,310077.09375,278646.875,681867.0625,204877.078125,204654.015625,230976.046875
1053,290749.0,275310.65625,310488.71875,279144.34375,682260.3125,205123.671875,205099.703125,231455.8125
1054,290652.34375,275287.9375,310502.5,279193.6875,682296.4375,205079.40625,205122.6875,231511.0625
1055,290526.5625,274722.09375,310124.125,278746.21875,681883.5625,204812.703125,204673.953125,231046.59375
1056,290486.78125,274327.53125,309808.96875,278351.46875,681587.4375,204633.0,204307.203125,230615.5625
1057,290552.9375,274499.71875,309871.46875,278417.625,681652.125,204702.5625,204369.25,230633.890625
1058,290655.125,275152.75,310319.75,278960.875,682116.25,204982.140625,204850.890625,231158.796875
1059,290587.90625,275089.0,310296.125,278947.8125,682047.125,204866.890625,204778.734375,231120.984375
1060,290450.21875,274493.84375,309905.4375,278492.375,681652.625,204572.390625,204309.171875,230630.3125
1061,290419.1875,274185.375,309669.40625,278202.6875,681487.4375,204479.84375,204078.140625,230335.0
1062,290471.5625,274434.71875,309774.90625,278329.21875,681648.0625,204588.75,204230.765625,230445.25
1063,290511.96875,275031.53125,310155.78125,278805.46875,682032.9375,204816.28125,204669.921875,230899.25
1064,290428.46875,275025.8125,310180.1875,278869.21875,682067.4375,204768.28125,204716.328125,230959.421875
1065,290315.375,274527.53125,309872.34375,278510.875,681784.9375,204569.703125,204388.65625,230598.40625
1066,290387.71875,274321.09375,309744.3125,278323.40625,681745.125,204575.953125,204278.765625,230417.34375
1067,290613.90625,274687.5625,309997.875,278584.8125,681926.875,204844.359375,204571.484375,230674.125
1068,290761.4375,275314.9375,310422.375,279080.21875,682301.0,205100.328125,205010.03125,231144.046875
1069,290717.4375,275358.5625,310485.40625,279175.625,682363.375,205087.28125,205064.296875,231243.203125
1070,290563.65625,274810.0625,310143.15625,278788.9375,681971.625,204856.25,204673.0625,230854.640625
1071,290470.9375,274411.40625,309836.21875,278424.78125,681739.0625,204694.6875,204348.515625,230487.625
1072,290509.125,274576.625,309897.125,278498.625,681844.75,204765.0625,204434.078125,230543.765625
1073,290589.5,275174.40625,310297.65625,278975.53125,682242.5,204991.96875,204870.203125,231010.5625
1074,290545.78125,275171.53125,310320.1875,279011.375,682227.125,204920.890625,204854.734375,231032.296875
1075,290478.28125,274661.46875,310020.15625,278650.8125,681859.75,204739.125,204485.65625,230649.625
1076,290410.34375,274222.3125,309678.34375,278226.5625,681544.875,204540.28125,204108.453125,230201.4375
1077,290444.46875,274350.15625,309688.53125,278222.0,681556.9375,204574.0,204116.5,230152.4375
1078,290545.0625,274975.28125,310115.34375,278740.40625,681975.5625,204845.4375,204580.078125,230637.640625
1079,290466.3125,274992.0,310156.125,278817.71875,682012.9375,204816.28125,204619.765625,230714.53125
1080,290372.15625,274489.8125,309840.15625,278445.625,681725.0,204608.140625,204243.8125,230323.828125
1081,290345.25,274211.3125,309620.3125,278168.625,681593.875,204520.078125,204027.53125,230037.453125
1082,290396.84375,274431.78125,309719.71875,278287.625,681746.375,204622.1875,204179.53125,230144.65625
1083,290577.0625,275128.0,310217.71875,278871.65625,682238.6875,204937.515625,204727.59375,230714.453125
1084,290532.8125,275173.15625,310287.65625,278976.34375,682309.1875,204913.828125,204798.578125,230820.3125
1085,290431.6875,274701.15625,310001.46875,278644.8125,681949.4375,204722.765625,204469.921875,230486.8125
1086,290420.53125,274398.0625,309781.6875,278364.15625,681767.6875,204632.640625,204239.796875,230212.703125
1087,290543.625,274658.25,309930.09375,278525.71875,681903.375,204774.71875,204411.0,230363.34375
1088,290671.5625,275327.625,310389.5625,279078.625,682347.375,205058.84375,204904.078125,230901.21875
1089,290593.96875,275367.15625,310448.3125,279178.5625,682434.1875,205020.765625,204969.625,231012.0
1090,290493.84375,274922.53125,310192.25,278889.25,682108.125,204845.796875,204682.890625,230724.546875
1091,290445.28125,274617.125,309975.0,278626.40625,681844.8125,204760.140625,204483.25,230476.984375
1092,290492.3125,274852.25,310093.71875,278768.09375,681958.375,204857.59375,204661.171875,230626.5625
1093,290573.21875,275442.4375,310484.625,279244.03125,682370.875,205043.015625,205074.3125,231090.140625
1094,290527.90625,275531.5625,310602.0,279413.4375,682551.875,205061.4375,205191.96875,231272.703125
1095,290430.53125,275056.90625,310328.59375,279097.84375,682225.25,204870.375,204868.859375,230965.140625
1096,290385.65625,274715.8125,310068.6875,278780.28125,681857.8125,204732.59375,204586.421875,230650.171875
1097,290438.40625,274927.46875,310156.03125,278885.0625,681875.75,204815.390625,204690.484375,230739.21875
1098,290520.03125,275522.90625,310548.8125,279356.84375,682284.625,205029.25,205095.859375,231191.796875
1099,290486.0625,275638.5,310691.3125,279556.9375,682507.9375,205062.609375,205252.0625,231403.0625
1100,290370.53125,275170.09375,310422.84375,279258.25,682221.6875,204849.640625,204956.46875,231118.75
1101,290369.1875,274901.09375,310241.15625,279028.09375,681976.4375,204789.90625,204782.9375,230916.0625
1102,290439.84375,275128.71875,310367.125,279170.1875,682086.125,204921.96875,204952.0,231080.390625
1103,290599.15625,275813.84375,310846.25,279732.71875,682642.8125,205224.421875,205458.5,231645.265625
1104,290593.6875,275913.4375,310984.125,279914.75,682889.8125,205257.234375,205598.78125,231853.21875
1105,290451.90625,275367.96875,310655.90625,279540.84375,682554.0625,205008.953125,205228.09375,231500.6875
1106,290394.40625,274987.34375,310373.75,279188.3125,682198.1875,204863.5,204939.046875,231170.328125
1107,290452.71875,275160.34375,310442.15625,279258.6875,682222.125,204945.484375,205028.8125,231237.65625
1108,290569.65625,275764.75,310866.65625,279771.25,682721.625,205184.546875,205474.59375,231735.203125
1109,290567.0625,275831.1875,310985.75,279925.3125,682945.9375,205219.328125,205594.9375,231918.3125
1110,290439.375,275246.625,310629.28125,279509.84375,682561.75,204980.609375,205181.875,231511.15625
1111,290377.4375,274800.5,310284.59375,279079.59375,682082.8125,204807.078125,204792.953125,231071.546875
1112,290443.15625,274939.6875,310324.03125,279106.5,682011.3125,204875.296875,204834.078125,231074.40625
1113,290522.90625,275481.875,310669.875,279513.6875,682367.25,205085.84375,205182.671875,231446.421875
1114,290461.1875,275444.40625,310691.9375,279565.25,682438.25,204994.03125,205202.078125,231498.015625
1115,290350.96875,274879.8125,310348.25,279158.90625,682033.1875,204768.28125,204800.640625,231080.21875
1116,290270.21875,274431.875,309998.9375,278729.03125,681716.0625,204598.484375,204424.421875,230633.0
1117,290241.34375,274496.25,309968.90625,278699.71875,681752.1875,204607.34375,204422.0,230584.546875
1118,290285.34375,274999.4375,310273.625,279070.125,682049.5625,204768.0,204743.59375,230924.640625
1119,290264.0625,274998.1875,310303.84375,279117.6875,682064.75,204743.859375,204745.75,230948.0625
1120,290310.09375,274596.75,310091.21875,278832.03125,681794.875,204662.328125,204474.296875,230639.171875
1121,290401.46875,274355.25,309936.46875,278592.4375,681699.6875,204697.109375,204315.703125,230390.4375
1122,290429.1875,274457.875,309946.65625,278588.5,681758.4375,204777.65625,204364.15625,230371.125
1123,290514.21875,274975.90625,310264.03125,278959.875,682025.875,204962.203125,204692.8125,230703.90625
1124,290484.4375,274972.34375,310275.125,278978.75,682001.75,204924.015625,204673.5,230698.4375
1125,290347.46875,274393.0625,309909.46875,278552.71875,681701.25,204696.21875,204272.6875,230256.15625
1126,290319.9375,274047.6875,309659.28125,278238.8125,681560.0625,204605.734375,204041.578125,229940.28125
1127,290350.34375,274107.40625,309624.4375,278184.09375,681587.0625,204604.390625,204013.671875,229848.1875
1128,290412.125,274484.0,309802.4375,278377.5,681708.375,204645.703125,204125.34375,229941.171875
1129,290380.8125,274470.40625,309782.75,278350.65625,681647.5,204594.015625,204046.046875,229836.921875
1130,290270.5,273936.90625,309426.84375,277930.8125,681301.6875,204388.65625,203634.421875,229349.921875
1131,290202.90625,273528.9375,309095.6875,277527.40625,680922.3125,204238.984375,203296.375,228889.03125
1132,290264.5,273671.46875,309128.21875,277549.59375,680943.9375,204310.0625,203359.3125,228858.890625
1133,290367.15625,274301.78125,309536.625,278041.9375,681459.1875,204562.453125,203799.109375,229295.734375
1134,290266.46875,274359.90625,309587.59375,278141.625,681612.125,204532.78125,203857.484375,229378.265625
1135,290046.34375,273785.46875,309188.03125,277701.3125,681288.8125,204229.59375,203411.171875,228917.28125
1136,289950.59375,273397.96875,308863.84375,277313.71875,680964.8125,204045.859375,203060.953125,228503.0625
1137,290093.28125,273733.6875,309044.96875,277507.75,681193.25,204241.40625,203274.28125,228669.984375
1138,290432.3125,274642.15625,309735.125,278291.21875,681916.5,204767.828125,204006.890625,229430.125
1139,290539.96875,274911.1875,310016.375,278628.71875,682176.8125,204937.703125,204312.296875,229774.515625
1140,290390.65625,274400.3125,309686.21875,278257.875,681832.375,204678.0625,203941.4375,229394.796875
1141,290349.875,274097.125,309451.5,277976.6875,681664.25,204570.6875,203697.984375,229103.25
1142,290428.9375,274328.34375,309559.4375,278101.84375,681767.875,204679.3125,203823.25,229210.09375
1143,290505.09375,274979.21875,309993.84375,278647.0625,682166.25,204935.640625,204282.078125,229726.59375
1144,290408.71875,275073.46875,310099.8125,278829.34375,682313.9375,204895.140625,204416.546875,229919.0
1145,290294.09375,274649.75,309864.84375,278575.71875,682042.4375,204726.96875,204168.0,229685.640625
1146,290265.9375,274353.625,309660.53125,278332.15625,681804.9375,204630.046875,203973.71875,229458.109375
1147,290335.9375,274593.15625,309793.84375,278487.1875,681899.375,204753.078125,204162.90625,229622.875
1148,290432.59375,275150.53125,310151.375,278921.0,682212.9375,204904.171875,204510.25,230014.921875
1149,290373.40625,275193.96875,310213.09375,279024.34375,682256.0,204855.796875,204545.828125,230098.171875
1150,290273.0,274720.03125,309927.59375,278693.09375,681873.0,204651.234375,204211.625,229762.53125
1151,290244.9375,274460.125,309748.0625,278473.15625,681682.4375,204600.375,204052.65625,229559.84375
1152,290320.28125,274728.0625,309910.34375,278667.96875,681838.375,204751.203125,204284.3125,229774.25
1153,290412.5625,275354.375,310343.09375,279200.03125,682316.4375,204985.09375,204758.890625,230310.0625
1154,290370.71875,275463.71875,310471.5625,279384.5625,682530.125,204997.609375,204901.140625,230522.5
1155,290253.40625,274990.40625,310198.0625,279075.84375,682244.0,204810.65625,204606.890625,230236.65625
1156,290189.21875,274633.9375,309937.625,278758.1875,681910.625,204681.546875,204356.90625,229947.421875
1157,290268.71875,274817.65625,310035.34375,278863.40625,681963.3125,204782.671875,204498.265625,230067.328125
1158,290340.6875,275391.65625,310410.84375,279322.625,682389.5,204974.265625,204895.765625,230517.75
1159,290334.0625,275505.03125,310545.125,279497.65625,682590.9375,205002.15625,205013.15625,230707.921875
1160,290266.125,275044.03125,310296.21875,279208.25,682309.5,204838.8125,204714.625,230429.78125
1161,290276.40625,274745.40625,310101.0625,278953.53125,682040.625,204786.6875,204517.84375,230204.734375
1162,290345.5,274936.75,310195.1875,279058.25,682102.0625,204903.453125,204649.0,230323.203125
1163,290415.25,275518.15625,310584.3125,279538.0,682566.875,205103.640625,205064.65625,230798.671875
1164,290365.8125,275595.40625,310678.8125,279677.03125,682756.6875,205086.75,205158.0,230955.125
1165,290265.40625,275099.5625,310386.25,279338.96875,682438.0625,204892.546875,204812.703125,230626.296875
1166,290225.71875,274749.09375,310130.90625,279024.4375,682099.5625,204789.28125,204540.90625,230324.28125
1167,290280.0625,274886.15625,310173.21875,279063.15625,682069.5,204830.5,204591.34375,230360.21875
