Unnamed: 0,EEG 1,EEG 2,EEG 3,EEG 4,EEG 5,EEG 6,EEG 7,EEG 8
0,291297.34375,276058.1875,311825.90625,280251.90625,682045.25,205266.0,208296.28125,227465.125
1,291254.59375,276092.6875,311908.875,280377.625,682170.625,205278.078125,208403.203125,227622.125
2,291174.84375,275650.03125,311648.6875,280072.5625,681859.9375,205117.765625,208105.84375,227331.015625
3,291151.4375,275355.8125,311428.125,279792.96875,681699.625,205028.453125,207888.671875,227068.15625
4,291270.78125,275619.46875,311575.71875,279943.1875,681841.3125,205170.34375,208063.09375,227215.59375
5,291328.4375,276148.5625,311918.15625,280355.4375,682171.1875,205331.265625,208421.359375,227617.84375
6,291246.1875,276113.78125,311926.75,280392.8125,682202.625,205265.109375,208430.5625,227674.609375
7,291137.125,275621.4375,311617.21875,280029.03125,681845.25,205038.109375,208076.953125,227310.1875
8,291138.28125,275347.75,311414.1875,279761.15625,681693.25,204969.625,207859.4375,227044.828125
9,291345.15625,275685.1875,311652.53125,280006.5,681888.375,205207.0,208116.484375,227284.0
10,291391.40625,276203.125,311991.375,280418.65625,682220.0,205373.015625,208463.640625,227686.765625
11,291350.4375,276220.46875,312043.5,280496.875,682292.0625,205358.984375,208499.9375,227784.671875
12,291265.6875,275762.34375,311771.1875,280175.5625,681952.125,205191.796875,208175.578125,227468.703125
13,291228.5,275450.03125,311537.90625,279889.625,681759.5,205099.53125,207935.0625,227188.59375
14,291297.59375,275656.125,311632.40625,279986.90625,681867.4375,205195.640625,208041.640625,227282.296875
15,291365.03125,276169.5,311972.875,280394.0625,682190.375,205368.203125,208390.59375,227678.546875
16,291305.65625,276131.59375,311972.78125,280406.125,682176.375,205293.453125,208356.71875,227692.84375
17,291225.09375,275682.5,311708.875,280097.40625,681848.0625,205121.4375,208042.8125,227376.0
18,291146.40625,275280.53125,311386.71875,279705.90625,681568.125,204929.390625,207686.078125,226968.203125
19,291188.78125,275402.03125,311400.3125,279707.78125,681598.0625,204942.171875,207677.75,226922.078125
20,291269.96875,276003.5625,311803.375,280196.9375,681993.5,205179.375,208104.859375,227386.625
21,291227.25,276039.84375,311868.0,280293.46875,682059.0625,205184.375,208159.578125,227495.078125
22,291091.625,275555.53125,311560.0,279945.25,681743.375,204992.78125,207814.546875,227152.46875
23,291064.34375,275262.28125,311357.59375,279695.09375,681683.5625,204883.34375,207647.8125,226924.671875
24,291218.3125,275532.5625,311526.8125,279866.46875,681836.875,205028.359375,207847.359375,227090.609375
25,291359.65625,276134.28125,311935.78125,280341.84375,682215.25,205277.890625,208258.71875,227546.21875
26,291380.125,276222.6875,312049.0625,280483.125,682337.875,205330.46875,208355.109375,227696.609375
27,291381.90625,275862.375,311864.34375,280256.28125,682085.25,205261.265625,208124.796875,227472.28125
28,291227.59375,275441.71875,311524.6875,279866.125,681793.6875,205062.421875,207792.734375,227104.109375
29,291235.5625,275575.03125,311564.46875,279913.3125,681869.25,205099.703125,207869.09375,227156.859375
30,291321.03125,276138.375,311941.75,280363.5,682243.25,205306.234375,208274.015625,227603.0
31,291278.8125,276161.28125,311998.53125,280450.3125,682331.125,205283.609375,208333.46875,227711.890625
32,291189.0625,275691.15625,311711.4375,280114.75,681979.8125,205085.84375,208001.234375,227378.046875
33,291131.84375,275321.46875,311422.5,279755.4375,681717.25,204937.703125,207687.59375,227014.078125
34,291171.71875,275397.03125,311405.0625,279719.5,681702.3125,204924.296875,207636.265625,226927.078125
35,291274.09375,275967.875,311774.125,280154.0,682004.625,205162.109375,207994.4375,227319.671875
36,291219.65625,275985.40625,311803.71875,280207.5625,681993.0625,205143.421875,208000.6875,227361.515625
37,291139.8125,275588.96875,311583.15625,279961.59375,681758.875,205015.84375,207771.90625,227121.265625
38,291065.9375,275244.3125,311331.5625,279668.0,681644.9375,204878.609375,207548.921875,226847.5
39,291072.9375,275384.0625,311358.21875,279698.3125,681727.625,204904.625,207611.6875,226879.78125
40,291133.28125,275943.65625,311714.75,280126.1875,682074.9375,205096.046875,207994.890625,227301.6875
41,291072.3125,275960.375,311759.5625,280204.4375,682147.1875,205062.15625,208046.03125,227400.21875
42,291062.71875,275571.1875,311560.4375,279957.3125,681881.5,204949.40625,207808.109375,227160.875
43,291170.90625,275388.96875,311467.625,279800.84375,681768.375,204994.03125,207714.6875,227018.453125
44,291270.0625,275608.65625,311586.0,279920.125,681833.5625,205123.671875,207858.71875,227134.953125
45,291313.53125,276110.21875,311903.40625,280308.15625,682133.0625,205267.078125,208184.6875,227508.3125
46,291255.125,276108.25,311936.84375,280369.375,682176.1875,205216.921875,208205.609375,227586.09375
47,291119.3125,275619.03125,311618.46875,280007.28125,681839.8125,204982.765625,207843.609375,227230.96875
48,291082.40625,275292.875,311379.125,279714.125,681718.5,204874.84375,207604.890625,226947.640625
49,291149.90625,275522.375,311505.0,279859.5,681884.1875,205014.046875,207779.5,227101.609375
50,291248.6875,276137.9375,311933.4375,280380.375,682368.9375,205276.28125,208264.984375,227643.59375
51,291175.90625,276088.84375,311924.15625,280387.8125,682379.9375,205185.09375,208233.0625,227667.640625
52,291013.1875,275412.75,311437.40625,279807.09375,681795.5625,204795.546875,207617.859375,227038.65625
53,290988.0625,275046.8125,311142.375,279434.1875,681514.625,204641.9375,207264.96875,226614.875
54,291061.21875,275325.40625,311313.0625,279637.59375,681732.0,204830.59375,207500.1875,226812.453125
55,291130.21875,275883.03125,311698.125,280106.625,682124.125,205059.65625,207926.125,227277.828125
56,291079.90625,275913.78125,311756.25,280196.65625,682202.0,205053.390625,207981.46875,227389.046875
57,290972.6875,275438.25,311461.375,279857.53125,681855.75,204858.484375,207642.265625,227054.578125
58,290908.5,275090.96875,311193.25,279533.0625,681670.375,204721.515625,207366.0,226736.203125
59,290952.75,275255.3125,311250.8125,279591.28125,681772.375,204785.171875,207439.75,226784.75
60,291083.65625,275869.34375,311668.625,280077.65625,682171.6875,205048.203125,207875.4375,227260.390625
61,291054.875,275921.21875,311747.03125,280187.34375,682272.8125,205063.046875,207958.046875,227386.71875
62,291000.59375,275496.875,311502.6875,279899.09375,681961.9375,204916.953125,207671.140625,227097.21875
63,290959.90625,275158.03125,311247.875,279582.34375,681730.1875,204811.640625,207397.90625,226785.546875
64,291058.34375,275384.59375,311363.75,279700.53125,681827.6875,204954.59375,207533.546875,226898.109375
65,291123.09375,275928.375,311720.03125,280133.8125,682184.5625,205146.5625,207918.4375,227323.328125
66,291131.3125,276015.1875,311840.5625,280289.09375,682338.25,205184.109375,208041.375,227497.765625
67,291071.9375,275632.78125,311640.5625,280052.53125,682102.3125,205077.625,207821.515625,227288.015625
68,291001.75,275290.4375,311388.15625,279748.0,681872.75,204949.328125,207578.875,227011.296875
69,291001.3125,275328.53125,311338.34375,279685.34375,681805.9375,204896.65625,207514.953125,226927.53125
70,291022.5,275713.4375,311541.21875,279923.15625,681883.0,204944.765625,207660.6875,227108.671875
71,290978.5,275767.25,311608.71875,280025.875,681930.8125,204946.546875,207714.765625,227202.90625
72,290894.90625,275344.1875,311361.59375,279747.21875,681731.5625,204783.203125,207443.234375,226925.828125
73,290828.84375,274958.9375,311066.375,279388.875,681540.3125,204624.515625,207135.953125,226557.203125
74,290856.1875,275102.34375,311109.21875,279437.78125,681641.8125,204687.265625,207211.046875,226589.390625
75,291003.09375,275750.4375,311545.59375,279945.25,682056.1875,204960.328125,207667.75,227080.953125
76,290986.28125,275849.25,311655.125,280090.96875,682181.5625,205006.453125,207781.640625,227243.140625
77,290858.25,275369.84375,311361.875,279762.3125,681862.4375,204804.03125,207461.578125,226925.921875
78,290795.84375,275002.8125,311091.9375,279429.375,681679.0625,204665.546875,207192.71875,226605.65625
79,290882.3125,275191.28125,311184.3125,279522.96875,681796.1875,204773.375,207307.4375,226689.53125
80,291031.15625,275806.0625,311606.9375,280010.78125,682183.125,205041.859375,207733.90625,227161.59375
81,290959.65625,275829.84375,311642.15625,280074.875,682226.4375,205004.75,207758.140625,227238.9375
82,290830.0,275327.90625,311325.5625,279714.5625,681865.75,204771.84375,207399.875,226882.375
83,290788.15625,274983.875,311073.90625,279402.09375,681698.375,204656.609375,207142.03125,226571.0625
84,290885.4375,275184.9375,311182.15625,279510.28125,681821.9375,204793.390625,207276.140625,226669.40625
85,291030.0,275824.65625,311626.59375,280029.03125,682256.0,205085.578125,207750.4375,227182.0625
86,290991.75,275889.75,311711.28125,280148.1875,682379.1875,205083.4375,207831.984375,227324.671875
87,290861.65625,275383.6875,311401.75,279797.71875,682011.125,204850.796875,207472.203125,226973.84375
88,290827.3125,275042.34375,311149.09375,279485.25,681765.4375,204733.140625,207202.203125,226670.578125
89,290864.59375,275161.25,311167.9375,279500.625,681828.8125,204762.1875,207222.859375,226689.703125
90,290960.90625,275763.59375,311575.8125,279990.75,682245.625,205012.4375,207668.1875,227211.125
91,290908.3125,275740.34375,311570.71875,279993.0,682204.4375,204921.421875,207630.453125,227259.140625
92,290794.875,275241.375,311238.9375,279601.21875,681798.0625,204683.0625,207240.46875,226909.90625
93,290729.34375,274839.9375,310932.625,279234.46875,681560.4375,204511.671875,206919.40625,226589.75
94,290749.8125,274977.25,310967.125,279275.75,681641.9375,204569.4375,206979.671875,226667.4375
95,290839.46875,275589.96875,311372.34375,279765.25,682046.625,204831.03125,207420.265625,227194.671875
96,290762.15625,275621.4375,311424.0,279858.875,682131.75,204811.015625,207488.84375,227353.1875
97,290691.59375,275202.8125,311184.40625,279579.84375,681843.5,204656.421875,207223.84375,227116.71875
98,290737.75,274952.9375,311024.09375,279355.78125,681714.625,204646.6875,207063.171875,226926.1875
99,290813.28125,275130.75,311102.6875,279432.5,681804.3125,204745.203125,207171.890625,227033.203125
100,290890.8125,275674.90625,311463.875,279864.25,682146.375,204945.03125,207554.109375,227480.234375
101,290882.5625,275746.875,311564.1875,279998.875,682265.0625,204970.328125,207651.109375,227652.34375
102,290814.09375,275320.40625,311317.15625,279708.75,681956.5,204812.53125,207361.796875,227399.5
103,290789.875,274994.40625,311081.65625,279412.28125,681747.3125,204714.8125,207113.15625,227141.03125
104,290842.875,275168.75,311153.09375,279486.6875,681837.25,204802.78125,207209.796875,227244.03125
105,290904.75,275734.34375,311531.46875,279951.5,682234.4375,205021.921875,207625.8125,227738.1875
106,290844.21875,275726.84375,311559.28125,280012.46875,682286.375,204962.46875,207637.25,227835.359375
107,290729.5,275213.09375,311228.75,279630.53125,681896.25,204716.515625,207241.984375,227474.25
108,290683.8125,274846.1875,310943.0,279271.125,681664.25,204586.328125,206918.421875,227134.59375
109,290727.71875,274992.0,310988.6875,279313.9375,681735.6875,204655.4375,206975.640625,227187.078125
110,290793.0,275501.71875,311321.0,279716.8125,682026.25,204816.734375,207315.65625,227584.484375
111,290760.09375,275569.125,311392.34375,279820.875,682091.125,204824.953125,207370.546875,227710.109375
112,290648.40625,275136.5,311127.09375,279519.5,681820.4375,204658.296875,207077.484375,227442.515625
113,290603.0,274793.15625,310876.65625,279213.625,681682.0,204543.140625,206829.90625,227171.78125
114,290679.625,274968.84375,310958.90625,279296.875,681774.8125,204645.703125,206943.71875,227272.015625
115,290783.5,275550.53125,311342.5625,279751.21875,682135.5625,204866.171875,207351.15625,227727.625
116,290765.375,275636.90625,311443.3125,279885.15625,682259.375,204891.125,207453.96875,227888.734375
117,290681.15625,275194.0625,311184.84375,279581.8125,681943.1875,204730.28125,207151.59375,227608.71875
118,290612.3125,274807.46875,310897.03125,279230.625,681702.125,204590.53125,206845.203125,227284.703125
119,290645.28125,274946.0625,310928.96875,279264.5,681770.625,204645.609375,206890.703125,227329.046875
120,290749.375,275533.28125,311314.9375,279724.84375,682136.1875,204875.734375,207289.640625,227786.453125
121,290696.34375,275563.75,311372.96875,279816.9375,682211.5,204851.609375,207344.0,227899.203125
122,290582.0,275066.21875,311059.3125,279454.5625,681830.25,204629.515625,206971.703125,227543.546875
123,290595.75,274805.0625,310876.40625,279217.46875,681722.0625,204593.03125,206787.703125,227333.25
124,290667.71875,275000.59375,310967.84375,279310.375,681823.125,204712.65625,206907.515625,227446.09375
125,290737.28125,275510.5625,311292.9375,279695.78125,682101.4375,204899.875,207223.390625,227824.09375
126,290652.34375,275472.9375,311278.28125,279702.9375,682054.1875,204803.5,207161.703125,227830.359375
127,290504.03125,274965.09375,310949.78125,279332.96875,681726.6875,204559.234375,206781.0,227465.125
128,290490.875,274684.53125,310768.21875,279106.78125,681673.1875,204528.3125,206625.25,227276.21875
129,290633.5,274929.0625,310918.59375,279256.09375,681800.375,204692.1875,206813.109375,227443.578125
130,290680.96875,275407.125,311197.0,279587.96875,682008.875,204823.265625,207085.25,227756.234375
131,290597.46875,275424.09375,311227.59375,279653.96875,682034.8125,204782.9375,207114.21875,227837.6875
132,290495.25,275001.40625,310969.8125,279363.46875,681767.5,204612.4375,206835.359375,227566.15625
133,290457.90625,274661.46875,310727.09375,279065.75,681637.3125,204513.203125,206599.15625,227290.96875
134,290553.5625,274858.4375,310830.875,279172.75,681775.875,204641.9375,206737.828125,227406.921875
135,290654.3125,275442.875,311217.9375,279629.625,682140.125,204875.296875,207147.578125,227859.78125
136,290587.1875,275473.71875,311274.25,279724.0625,682220.5,204860.546875,207207.75,227973.40625
137,290479.0,274997.90625,310979.03125,279383.3125,681877.625,204666.625,206869.703125,227644.921875
138,290387.96875,274590.46875,310662.1875,279000.75,681627.9375,204499.78125,206536.390625,227274.78125
139,290497.21875,274802.90625,310779.65625,279119.5625,681768.1875,204647.3125,206680.953125,227394.953125
140,290655.75,275479.0,311255.5625,279677.1875,682251.0,204980.171875,207201.03125,227956.15625
141,290599.78125,275517.375,311308.5,279760.09375,682332.0,204968.546875,207250.21875,228057.625
142,290474.625,274979.9375,310962.21875,279361.15625,681903.75,204709.796875,206839.484375,227656.734375
143,290394.3125,274571.34375,310649.5625,278985.90625,681631.75,204519.015625,206506.609375,227288.46875
144,290448.5,274714.3125,310691.40625,279026.59375,681701.6875,204577.390625,206564.375,227323.15625
145,290526.46875,275270.59375,311051.0,279455.28125,682029.4375,204784.8125,206945.6875,227741.84375
146,290465.84375,275320.84375,311119.21875,279562.5,682116.8125,204790.625,207020.890625,227864.421875
147,290343.0,274814.53125,310803.71875,279203.875,681765.875,204578.734375,206656.8125,227510.1875
148,290277.1875,274464.0625,310535.3125,278880.5,681595.1875,204440.0625,206380.734375,227197.09375
149,290363.75,274652.53125,310624.875,278973.65625,681716.25,204555.3125,206501.609375,227293.375
150,290488.1875,275253.625,311027.21875,279451.71875,682098.75,204810.5625,206929.515625,227762.234375
151,290539.34375,275417.125,311197.4375,279656.8125,682289.0625,204910.34375,207100.640625,227986.90625
152,290482.21875,275004.96875,310969.1875,279383.75,681998.625,204777.390625,206839.125,227732.453125
153,290376.25,274581.90625,310643.5,278991.71875,681683.6875,204586.78125,206501.421875,227358.734375
154,290371.15625,274667.71875,310644.03125,278993.78125,681722.0,204607.609375,206522.625,227361.953125
155,290464.34375,275263.34375,311045.0,279477.90625,682128.875,204855.453125,206960.53125,227845.640625
156,290420.625,275341.3125,311137.71875,279613.53125,682279.25,204862.328125,207063.265625,228009.078125
157,290392.4375,274945.59375,310928.25,279365.25,682019.5,204728.21875,206804.875,227770.453125
158,290275.15625,274435.0,310522.15625,278878.78125,681590.9375,204457.578125,206341.75,227271.75
159,290212.03125,274416.75,310411.84375,278753.34375,681522.0,204381.5,206214.875,227114.390625
160,290262.53125,274949.71875,310751.125,279165.6875,681841.1875,204578.015625,206569.015625,227504.5625
161,290275.0625,275093.65625,310888.71875,279339.78125,681973.3125,204650.25,206699.828125,227683.46875
162,290355.53125,274864.5,310826.59375,279241.96875,681852.5,204687.8125,206617.65625,227602.109375
163,290460.5625,274675.3125,310740.75,279100.0625,681757.75,204753.515625,206550.78125,227486.59375
164,290422.5,274712.6875,310689.8125,279046.0,681745.375,204724.109375,206528.15625,227435.8125
165,290412.90625,275173.59375,310955.4375,279382.875,681994.375,204832.109375,206826.953125,227763.03125
166,290385.65625,275268.53125,311057.625,279523.15625,682131.5625,204850.703125,206952.046875,227917.984375
167,290216.125,274744.96875,310706.875,279133.59375,681777.75,204595.0,206571.34375,227535.9375
168,290107.6875,274330.84375,310379.46875,278745.3125,681566.75,204408.765625,206239.203125,227163.921875
169,290179.75,274502.78125,310460.65625,278828.71875,681699.1875,204503.0,206357.484375,227255.734375
170,290417.65625,275238.6875,310997.8125,279436.6875,682236.0,204892.28125,206935.859375,227866.65625
171,290474.875,275412.03125,311175.46875,279642.5,682445.5625,204998.046875,207123.515625,228095.359375
172,290362.9375,274940.96875,310880.59375,279300.34375,682091.5625,204792.421875,206793.078125,227766.4375
173,290251.4375,274531.8125,310556.9375,278917.875,681748.6875,204604.75,206463.4375,227398.515625
174,290283.0,274673.28125,310596.625,278958.28125,681778.5625,204672.78125,206539.609375,227448.046875
175,290351.15625,275177.875,310922.25,279349.6875,682088.875,204851.875,206884.09375,227824.28125
176,290293.375,275218.46875,310970.4375,279429.375,682154.1875,204830.140625,206926.109375,227905.640625
177,290159.90625,274662.8125,310596.5625,278993.40625,681721.375,204555.03125,206473.4375,227443.578125
178,290075.0625,274229.1875,310251.71875,278573.1875,681430.4375,204359.140625,206090.328125,226996.8125
179,290090.15625,274342.375,310268.34375,278589.65625,681500.5,204413.5,206139.0625,226992.25
180,290180.5625,274968.03125,310690.875,279098.28125,681947.125,204683.0625,206623.296875,227492.3125
181,290149.15625,275077.65625,310808.96875,279261.71875,682112.125,204718.828125,206764.90625,227673.8125
182,290066.28125,274645.71875,310554.09375,278966.9375,681808.6875,204555.3125,206477.921875,227385.828125
183,290129.78125,274412.28125,310407.53125,278755.6875,681660.375,204562.1875,206324.3125,227189.75
184,290274.78125,274622.3125,310532.625,278871.65625,681766.875,204729.5625,206466.375,227304.46875
185,290425.96875,275243.5,310965.875,279374.28125,682181.25,205022.640625,206918.15625,227789.40625
186,290358.75,275314.6875,311048.15625,279500.625,682311.5,205017.8125,207018.296875,227927.8125
187,290202.375,274844.03125,310752.84375,279180.28125,681997.0625,204806.625,206718.859375,227628.296875
188,290120.1875,274481.59375,310492.375,278876.03125,681758.0,204690.671875,206485.6875,227358.296875
189,290177.5,274611.03125,310551.9375,278934.84375,681837.6875,204773.109375,206578.140625,227430.625
190,290238.125,275043.25,310807.375,279234.28125,682034.75,204864.75,206798.53125,227692.21875
191,290160.96875,274960.28125,310739.875,279169.53125,681890.3125,204714.90625,206640.8125,227575.734375
192,290058.59375,274452.875,310408.25,278780.90625,681565.3125,204482.53125,206212.90625,227134.421875
193,290023.65625,274140.84375,310193.5,278517.40625,681455.375,204419.59375,205997.890625,226856.984375
194,290073.625,274309.46875,310277.53125,278616.125,681603.875,204532.0625,206130.65625,226952.109375
195,290157.03125,274906.1875,310672.53125,279094.4375,682001.75,204757.71875,206565.171875,227417.203125
196,290060.65625,274931.9375,310712.59375,279179.5625,682072.125,204707.203125,206610.5,227509.03125
197,289927.625,274447.34375,310412.1875,278841.34375,681744.9375,204508.015625,206270.765625,227174.46875
198,289907.5,274102.59375,310170.78125,278536.625,681593.5625,204405.8125,206011.921875,226875.484375
199,290119.65625,274397.09375,310378.65625,278741.1875,681816.5,204637.65625,206248.140625,227079.78125
200,290339.875,275114.59375,310895.71875,279333.59375,682333.4375,204998.40625,206802.015625,227665.3125
201,290189.6875,275071.125,310874.6875,279352.65625,682346.125,204893.0,206778.046875,227692.140625
202,290102.78125,274679.34375,310666.65625,279127.0625,682126.875,204771.046875,206554.71875,227485.515625
203,290102.21875,274474.34375,310548.71875,278984.5625,682011.0625,204795.71875,206481.3125,227395.296875
204,290081.59375,274455.84375,310457.0625,278873.59375,681848.6875,204729.5625,206381.71875,227290.078125
205,290101.0625,274705.53125,310535.9375,278953.90625,681741.5,204649.0,206331.28125,227267.265625
206,290076.40625,274721.71875,310561.78125,278995.46875,681667.5,204600.90625,206289.4375,227241.96875
207,289971.96875,274278.09375,310289.0,278682.90625,681444.3125,204425.046875,205979.46875,226898.109375
208,289882.75,273908.84375,310014.40625,278368.1875,681285.9375,204304.4375,205730.03125,226568.375
209,289792.15625,273969.5625,309991.1875,278383.3125,681423.0,204319.90625,205809.0625,226590.015625
210,289775.4375,274470.125,310290.59375,278778.46875,681780.375,204463.84375,206173.84375,226976.875
211,289875.84375,274718.59375,310543.34375,279080.5,682082.8125,204630.3125,206455.203125,227296.953125
212,289974.75,274461.90625,310467.09375,278959.25,681946.6875,204649.1875,206349.265625,227185.90625
213,290094.46875,274275.6875,310362.84375,278784.125,681771.875,204697.828125,206236.421875,227024.625
214,290098.65625,274363.75,310346.9375,278760.5,681756.75,204714.546875,206245.28125,226999.234375
215,290075.5,274813.90625,310605.125,279091.9375,682014.6875,204826.484375,206527.796875,227312.0625
216,289989.40625,274849.125,310642.6875,279162.5625,682078.25,204779.453125,206554.890625,227385.46875
217,289860.3125,274330.40625,310311.96875,278787.34375,681726.8125,204520.96875,206159.625,227002.1875
218,289865.75,274028.46875,310107.65625,278522.78125,681620.25,204464.46875,205935.03125,226742.0
219,290009.6875,274231.6875,310229.09375,278629.53125,681717.0625,204622.625,206068.4375,226842.40625
220,290124.9375,274805.9375,310606.375,279071.375,682042.5,204846.6875,206453.953125,227250.375
221,290060.65625,274916.0,310720.28125,279235.09375,682208.875,204871.09375,206589.671875,227428.921875
222,289944.53125,274476.5625,310457.875,278943.34375,681928.625,204681.453125,206303.03125,227154.0
223,289887.46875,274086.21875,310165.59375,278587.0625,681669.4375,204526.78125,205990.46875,226799.3125
224,289922.15625,274158.5625,310159.34375,278565.875,681684.6875,204554.140625,205991.09375,226756.578125
225,290020.6875,274718.34375,310524.5625,278997.25,682011.5,204771.9375,206374.828125,227151.671875
226,289990.84375,274827.0625,310634.1875,279146.5625,682146.6875,204795.0,206492.578125,227294.28125
227,289878.625,274305.90625,310294.875,278744.0625,681749.25,204536.0,206075.9375,226865.484375
228,289789.75,273895.875,309968.03125,278343.78125,681483.1875,204351.28125,205713.75,226437.84375
229,289726.625,273922.6875,309901.78125,278275.46875,681481.8125,204323.46875,205670.65625,226342.359375
230,289684.0625,274372.3125,310156.65625,278613.25,681736.4375,204434.78125,205956.046875,226645.8125
231,289647.78125,274504.125,310276.1875,278777.59375,681880.0625,204464.921875,206082.921875,226809.515625
232,289797.1875,274334.15625,310279.59375,278746.28125,681834.75,204547.4375,206064.59375,226785.015625
233,289976.53125,274206.65625,310251.0,278652.9375,681716.8125,204668.578125,206041.609375,226699.09375
234,290080.40625,274390.21875,310339.78125,278727.6875,681772.3125,204792.6875,206161.953125,226766.328125
235,290145.78125,274926.5625,310671.75,279123.15625,682088.0,204976.5,206517.96875,227139.15625
236,290050.46875,274986.90625,310732.28125,279230.96875,682205.5625,204941.28125,206601.921875,227261.640625
237,289969.5625,274606.9375,310530.9375,279009.875,682007.8125,204802.78125,206390.125,227065.390625
238,289865.46875,274198.34375,310230.78125,278654.84375,681743.0,204639.34375,206079.34375,226735.5625
239,289839.375,274095.15625,310063.9375,278437.84375,681611.8125,204493.609375,205854.75,226477.546875
240,289921.0,274525.3125,310306.4375,278718.03125,681736.5625,204597.234375,206037.9375,226667.359375
241,289898.125,274662.8125,310444.09375,278907.21875,681843.6875,204666.34375,206194.671875,226839.1875
242,289830.25,274293.03125,310250.53125,278694.4375,681638.3125,204570.5,206009.421875,226621.3125
243,289764.53125,273927.71875,309979.8125,278372.5625,681477.1875,204440.78125,205757.46875,226294.96875
244,289793.25,274014.59375,309989.84375,278380.96875,681540.75,204481.28125,205800.65625,226287.1875
245,289815.25,274516.53125,310290.875,278753.90625,681822.125,204632.375,206121.453125,226634.984375
246,289694.4375,274554.1875,310316.34375,278823.1875,681872.25,204576.671875,206139.234375,226702.40625
247,289582.78125,274106.96875,310049.375,278522.15625,681614.0,204396.078125,205838.65625,226403.328125
248,289658.40625,273860.1875,309904.625,278313.28125,681540.9375,204375.953125,205683.625,226199.484375
249,289859.03125,274141.5625,310097.75,278499.0,681669.0625,204617.53125,205913.484375,226384.5625
250,289987.875,274758.03125,310506.6875,278973.21875,682065.5,204879.3125,206356.671875,226840.796875
251,290097.125,275004.4375,310759.34375,279262.25,682358.375,205045.4375,206625.4375,227140.140625
252,289900.625,274443.3125,310392.0,278854.3125,681935.0625,204753.96875,206213.8125,226734.859375
253,289841.6875,274062.25,310117.78125,278520.90625,681666.875,204627.1875,205912.859375,226406.015625
254,289866.28125,274143.53125,310120.71875,278518.9375,681708.5625,204657.59375,205921.171875,226400.296875
255,289947.65625,274691.15625,310475.9375,278946.125,682049.125,204858.578125,206281.484375,226804.40625
256,289908.03125,274796.21875,310583.3125,279098.75,682203.375,204857.765625,206397.265625,226962.65625
257,289766.6875,274213.53125,310188.9375,278637.21875,681735.5,204541.984375,205916.265625,226468.875
258,289642.3125,273691.21875,309767.84375,278127.15625,681314.1875,204289.328125,205425.0625,225907.125
259,289598.5,273743.09375,309729.3125,278093.8125,681351.9375,204292.1875,205420.59375,225846.15625
260,289609.15625,274261.5625,310045.875,278494.6875,681685.6875,204443.28125,205778.03125,226221.21875
261,289545.40625,274359.625,310141.28125,278638.28125,681798.0625,204446.859375,205884.34375,226366.3125
262,289697.3125,274204.15625,310157.375,278621.75,681775.8125,204557.625,205880.671875,226360.953125
263,289746.40625,273946.21875,309997.78125,278394.21875,681629.25,204543.140625,205718.484375,226148.171875
264,289944.96875,274199.21875,310163.0,278539.21875,681796.625,204737.609375,205905.703125,226291.390625
265,290109.28125,274842.34375,310596.09375,279029.8125,682194.9375,205020.578125,206364.09375,226761.3125
266,289990.125,274894.90625,310633.46875,279111.53125,682268.8125,204965.6875,206421.765625,226845.890625
267,289891.78125,274530.75,310433.1875,278898.375,682064.0625,204847.9375,206225.96875,226651.265625
268,289826.84375,274225.4375,310228.1875,278660.1875,681842.5,204776.671875,206065.125,226455.453125
269,289829.53125,274249.125,310182.25,278592.4375,681742.25,204764.34375,206034.015625,226396.1875
270,289845.1875,274535.84375,310289.6875,278706.40625,681694.8125,204707.484375,206044.5625,226422.828125
271,289812.5625,274574.125,310318.21875,278751.65625,681633.4375,204636.84375,206013.453125,226403.609375
272,289782.6875,274278.1875,310192.96875,278613.4375,681593.5625,204589.8125,205888.546875,226251.15625
273,289760.25,273961.6875,309992.0625,278371.84375,681549.8125,204523.484375,205720.90625,226012.09375
274,289735.21875,273887.75,309849.5625,278193.03125,681437.5,204416.8125,205559.265625,225788.296875
275,289826.59375,274429.46875,310167.3125,278566.0625,681713.5,204595.0,205862.078125,226091.84375
276,289844.125,274688.90625,310414.5,278888.0,682000.75,204763.265625,206166.515625,226424.4375
277,289717.25,274240.28125,310158.46875,278609.9375,681734.5625,204581.234375,205903.296875,226155.9375
278,289663.5,273882.90625,309905.53125,278305.34375,681555.5625,204469.65625,205655.1875,225863.578125
279,289644.03125,273925.1875,309871.8125,278268.6875,681591.5625,204468.3125,205654.203125,225830.765625
280,289722.625,274468.09375,310213.09375,278677.90625,681912.5,204660.1875,206008.796875,226221.5625
281,289795.375,274682.03125,310419.78125,278922.6875,682139.3125,204772.390625,206208.53125,226470.484375
282,289759.4375,274306.625,310215.6875,278676.28125,681863.0625,204651.953125,205962.9375,226227.734375
283,289809.875,274039.03125,310055.53125,278455.71875,681666.5625,204640.421875,205805.390625,226022.015625
284,289793.59375,274057.625,310006.71875,278396.09375,681666.1875,204630.3125,205775.625,225961.03125
285,289887.84375,274609.0,310369.1875,278825.875,682006.1875,204831.125,206149.25,226370.875
286,289868.875,274723.34375,310487.46875,278977.59375,682135.875,204844.890625,206246.984375,226523.234375
287,289803.34375,274308.3125,310255.0,278705.78125,681841.6875,204677.703125,205952.203125,226245.796875
288,289704.8125,273881.75,309938.34375,278326.0,681568.9375,204499.875,205606.109375,225869.484375
289,289740.59375,273965.0,309941.28125,278317.125,681621.875,204543.859375,205615.234375,225851.6875
290,289858.34375,274548.46875,310327.6875,278770.53125,681974.75,204781.0625,206010.40625,226269.765625
291,289850.1875,274696.0625,310476.75,278966.25,682148.75,204828.265625,206163.65625,226458.59375
292,289741.65625,274247.59375,310213.34375,278669.3125,681837.875,204637.03125,205864.40625,226156.03125
293,289681.5625,273869.0625,309933.78125,278330.5625,681600.0,204495.40625,205567.578125,225814.59375
294,289756.9375,274007.71875,309972.9375,278358.71875,681659.1875,204570.59375,205610.75,225826.75
295,289844.90625,274541.03125,310313.9375,278767.03125,681950.875,204757.546875,205955.78125,226196.71875
296,289806.28125,274623.1875,310395.84375,278881.65625,682020.875,204734.75,206023.453125,226288.453125
297,289701.34375,274164.53125,310112.9375,278553.71875,681693.625,204535.734375,205689.875,225934.390625
298,289662.34375,273804.9375,309848.5625,278222.625,681501.5625,204421.203125,205399.125,225582.75
299,289713.5,273914.75,309879.25,278249.375,681571.625,204479.3125,205458.140625,225589.8125
300,289748.53125,274443.3125,310192.6875,278633.375,681850.625,204622.09375,205804.40625,225945.03125
301,289726.09375,274602.0,310343.625,278835.25,682036.8125,204672.15625,205981.53125,226149.0625
302,289721.0,274241.4375,310169.0,278628.90625,681805.3125,204583.65625,205772.9375,225930.015625
303,289694.09375,273899.09375,309931.71875,278334.5,681614.0625,204490.125,205536.640625,225636.484375
304,289745.59375,273999.15625,309953.71875,278345.75,681653.9375,204540.734375,205591.71875,225639.796875
305,289780.0,274482.28125,310244.375,278699.53125,681893.9375,204676.09375,205897.484375,225957.28125
306,289776.0,274652.0,310399.6875,278894.53125,682069.25,204732.6875,206053.859375,226147.1875
307,289730.21875,274303.03125,310222.1875,278685.84375,681854.1875,204635.953125,205848.484375,225942.4375
308,289695.0625,273977.9375,309996.28125,278405.21875,681661.375,204558.171875,205620.0625,225673.859375
309,289748.625,274073.4375,310021.65625,278420.75,681714.8125,204627.90625,205667.890625,225693.078125
310,289858.34375,274656.0,310413.09375,278885.0625,682108.3125,204860.28125,206090.96875,226142.265625
311,289814.78125,274734.78125,310496.5,279001.09375,682212.4375,204834.875,206167.9375,226259.65625
312,289691.75,274177.78125,310128.5,278569.90625,681742.8125,204542.515625,205705.34375,225790.8125
313,289598.15625,273637.84375,309700.875,278047.125,681272.25,204257.9375,205178.109375,225206.796875
314,289641.15625,273760.5,309739.125,278093.34375,681356.125,204350.75,205238.109375,225217.265625
315,289653.6875,274320.65625,310091.65625,278543.53125,681740.5625,204567.5625,205661.453125,225653.03125
316,289535.03125,274388.96875,310149.34375,278656.4375,681840.0625,204538.234375,205748.71875,225773.375
317,289499.53125,274024.4375,309962.03125,278434.53125,681635.625,204433.984375,205530.46875,225556.203125
318,289597.09375,273809.40625,309847.59375,278258.59375,681581.8125,204469.828125,205413.34375,225391.515625
319,289815.40625,274082.75,310037.125,278434.09375,681732.1875,204710.703125,205640.34375,225574.265625
320,289946.9375,274687.21875,310437.03125,278897.84375,682103.5,204965.59375,206070.671875,226025.5
321,289820.15625,274715.5625,310456.0,278955.6875,682145.125,204881.546875,206095.4375,226089.34375
322,289686.125,274250.71875,310167.40625,278635.4375,681806.1875,204674.3125,205775.53125,225767.46875
323,289629.71875,273870.9375,309895.6875,278306.15625,681583.3125,204547.34375,205499.984375,225444.53125
324,289672.4375,273957.65625,309912.5,278318.125,681651.25,204602.15625,205548.265625,225458.921875
325,289796.28125,274580.46875,310341.125,278830.78125,682087.625,204883.96875,206028.015625,225970.328125
326,289779.90625,274758.03125,310506.25,279050.8125,682335.125,204956.203125,206230.96875,226219.609375
327,289644.8125,274186.09375,310119.5625,278601.46875,681866.75,204637.65625,205764.453125,225753.796875
328,289565.6875,273715.375,309752.71875,278150.75,681510.0,204422.890625,205346.921875,225275.015625
329,289600.21875,273749.6875,309707.84375,278079.21875,681484.5,204432.546875,205299.265625,225167.375
330,289715.90625,274331.75,310077.4375,278511.40625,681785.25,204676.71875,205681.75,225550.921875
331,289676.21875,274527.53125,310255.0,278751.125,681999.9375,204763.890625,205905.0,225801.359375
332,289564.09375,274118.40625,310023.0,278501.6875,681758.125,204608.859375,205678.53125,225566.21875
333,289457.0625,273686.3125,309699.625,278122.6875,681500.9375,204429.59375,205371.5,225198.3125
334,289561.21875,273826.125,309763.09375,278169.875,681577.5625,204537.15625,205471.453125,225243.28125
335,289710.90625,274446.0,310167.75,278633.09375,681941.3125,204799.390625,205900.171875,225678.953125
336,289764.53125,274657.0,310371.25,278880.21875,682175.125,204908.640625,206115.546875,225925.0
337,289745.5,274321.09375,310208.625,278684.15625,681965.6875,204817.265625,205926.984375,225737.25
338,289650.375,273891.75,309892.03125,278310.0,681649.625,204638.453125,205602.078125,225372.921875
339,289671.375,273918.5,309852.9375,278254.1875,681643.375,204633.265625,205567.21875,225307.921875
340,289782.15625,274497.21875,310227.375,278695.78125,681984.5,204860.71875,205949.34375,225721.0625
341,289803.53125,274734.15625,310450.28125,278979.125,682274.875,204993.140625,206196.90625,226019.78125
342,289670.9375,274310.625,310209.0625,278721.25,682034.8125,204818.078125,205948.09375,225785.703125
343,289578.40625,273869.78125,309882.90625,278330.1875,681687.8125,204631.84375,205600.203125,225402.421875
344,289613.90625,273850.71875,309806.90625,278220.125,681608.5,204599.203125,205494.703125,225258.921875
345,289699.8125,274298.46875,310069.75,278524.9375,681746.375,204724.46875,205710.265625,225488.96875
346,289681.125,274409.53125,310160.34375,278645.53125,681771.4375,204727.0625,205760.609375,225562.1875
347,289610.03125,274054.125,309976.25,278439.53125,681574.375,204628.984375,205552.734375,225339.390625
348,289531.8125,273683.4375,309712.84375,278127.15625,681436.4375,204502.375,205296.578125,225032.1875
349,289520.625,273721.625,309673.96875,278085.125,681469.0625,204501.390625,205285.046875,224980.421875
350,289557.84375,274255.8125,309995.28125,278483.09375,681783.875,204673.140625,205635.25,225354.59375
351,289492.65625,274385.8125,310098.5625,278635.96875,681921.25,204670.90625,205750.234375,225507.828125
352,289522.25,274119.9375,309991.96875,278495.6875,681765.0,204648.015625,205617.640625,225372.65625
353,289624.09375,273922.6875,309894.6875,278339.84375,681641.4375,204696.21875,205530.015625,225237.109375
354,289713.59375,273999.3125,309927.15625,278353.8125,681694.375,204778.640625,205587.59375,225254.359375
355,289851.09375,274576.1875,310311.59375,278797.0625,682036.9375,205026.484375,205984.921875,225670.109375
356,289791.375,274706.0,310417.03125,278947.46875,682168.6875,205041.859375,206097.75,225822.015625
357,289680.9375,274260.375,310146.84375,278642.59375,681838.125,204844.890625,205782.328125,225515.96875
358,289588.6875,273840.4375,309832.84375,278269.65625,681555.5625,204670.375,205452.0625,225144.75
359,289577.6875,273878.09375,309808.34375,278247.3125,681609.0,204671.71875,205469.21875,225119.8125
360,289679.53125,274444.9375,310188.40625,278698.0,681980.875,204870.109375,205879.515625,225549.046875
361,289693.1875,274624.53125,310348.4375,278897.84375,682158.5625,204909.359375,206028.375,225740.65625
362,289602.53125,274189.65625,310093.0,278604.59375,681847.875,204738.0625,205718.765625,225436.578125
363,289528.25,273737.28125,309754.78125,278196.0,681528.3125,204536.0,205340.03125,225006.265625
364,289582.78125,273830.59375,309770.25,278198.6875,681577.5,204599.03125,205372.671875,224987.65625
365,289685.3125,274399.15625,310136.375,278628.0,681893.4375,204822.1875,205750.59375,225377.484375
366,289680.78125,274568.21875,310293.625,278829.1875,682059.5,204881.109375,205907.234375,225565.234375
367,289585.0,274139.78125,310045.625,278550.84375,681747.5625,204710.078125,205617.546875,225274.84375
368,289534.125,273785.5625,309790.53125,278241.15625,681531.375,204593.65625,205354.96875,224968.171875
369,289589.84375,273871.125,309810.9375,278250.53125,681602.625,204646.234375,205403.421875,224974.25
370,289682.8125,274421.59375,310165.0625,278671.1875,681927.0625,204846.421875,205780.265625,225368.53125
371,289667.28125,274574.84375,310300.875,278851.78125,682093.8125,204870.203125,205918.234375,225545.03125
372,289597.625,274153.375,310053.21875,278567.375,681783.75,204680.65625,205618.53125,225251.859375
373,289580.375,273792.78125,309796.90625,278245.78125,681534.6875,204553.703125,205326.359375,224919.359375
374,289658.5,273891.9375,309826.3125,278257.25,681584.3125,204625.046875,205369.0,224923.015625
375,289765.875,274456.53125,310197.0,278694.875,681925.3125,204851.78125,205763.015625,225342.78125
376,289788.0625,274647.625,310376.15625,278925.03125,682146.125,204936.53125,205949.96875,225578.46875
377,289710.0,274219.0,310125.90625,278638.90625,681835.375,204751.734375,205649.734375,225288.875
378,289707.0625,273851.09375,309871.0,278314.90625,681570.25,204638.8125,205360.6875,224954.5
379,289753.375,273935.75,309880.65625,278314.625,681624.0,204698.09375,205401.1875,224948.765625
380,289847.34375,274507.78125,310252.40625,278757.46875,681981.4375,204924.015625,205814.875,225375.78125
381,289820.59375,274653.6875,310387.78125,278942.375,682158.125,204940.734375,205966.5,225565.234375
382,289712.40625,274179.125,310097.3125,278609.5,681820.125,204712.484375,205621.671875,225225.84375
383,289655.03125,273759.71875,309791.15625,278231.03125,681561.75,204553.25,205273.328125,224833.4375
384,289703.3125,273821.5,309786.53125,278213.0625,681598.3125,204607.078125,205280.046875,224795.796875
385,289802.71875,274370.90625,310141.28125,278636.0625,681908.375,204823.53125,205647.0625,225181.59375
386,289778.21875,274499.09375,310243.125,278770.78125,681988.75,204816.015625,205725.109375,225292.984375
387,289684.15625,274087.90625,310001.1875,278495.6875,681689.875,204647.484375,205441.859375,225002.328125
388,289619.0,273680.75,309708.46875,278138.78125,681453.6875,204502.5625,205129.03125,224632.453125
389,289676.75,273764.71875,309725.09375,278140.90625,681509.0,204568.71875,205164.34375,224615.46875
390,289731.09375,274279.78125,310049.46875,278533.40625,681804.6875,204745.46875,205508.203125,224973.984375
391,289673.625,274399.3125,310150.5,278677.1875,681916.1875,204741.28125,205601.453125,225105.6875
392,289616.5625,274030.625,309951.46875,278444.28125,681667.1875,204610.375,205360.234375,224865.984375
393,289637.40625,273728.0625,309754.6875,278183.46875,681509.75,204551.1875,205148.34375,224605.890625
394,289780.46875,273874.96875,309841.9375,278251.875,681627.125,204684.5,205257.6875,224665.265625
395,289976.625,274538.71875,310306.0625,278781.875,682055.8125,205018.4375,205754.4375,225168.71875
396,289905.34375,274663.78125,310406.28125,278933.4375,682185.3125,205006.90625,205872.359375,225318.46875
397,289777.875,274226.78125,310143.6875,278643.84375,681878.8125,204806.265625,205584.03125,225028.875
398,289692.125,273827.5625,309852.5,278295.59375,681605.125,204663.84375,205278.4375,224685.46875
399,289682.46875,273812.8125,309783.125,278210.21875,681589.375,204630.953125,205221.03125,224595.96875
400,289790.5625,274335.9375,310109.09375,278588.84375,681842.75,204806.71875,205541.828125,224930.984375
401,289774.09375,274498.5625,310241.875,278762.375,681963.1875,204830.40625,205667.625,225078.40625
402,289664.40625,274051.34375,309968.71875,278450.34375,681627.0,204617.984375,205346.015625,224743.40625
403,289605.5625,273680.84375,309712.5,278140.375,681457.0,204498.265625,205088.078125,224433.96875
404,289629.625,273697.125,309671.8125,278079.59375,681458.0625,204502.640625,205061.34375,224357.609375
405,289745.0625,274288.09375,310061.28125,278541.28125,681818.0625,204754.328125,205484.515625,224790.4375
406,289721.625,274488.03125,310230.59375,278767.40625,682024.6875,204823.53125,205679.25,225020.390625
407,289618.8125,274071.84375,309986.4375,278492.8125,681739.5625,204659.28125,205403.953125,224747.609375
408,289543.09375,273663.6875,309692.46875,278137.78125,681492.9375,204501.125,205095.234375,224399.90625
409,289597.875,273744.34375,309705.59375,278134.84375,681544.4375,204565.765625,205136.984375,224400.96875
410,289726.53125,274345.15625,310101.9375,278595.71875,681905.1875,204820.21875,205563.8125,224842.109375
411,289705.8125,274519.9375,310249.5625,278787.78125,682071.625,204854.015625,205719.296875,225031.734375
412,289590.03125,274093.1875,309993.84375,278498.5625,681769.0,204676.984375,205431.859375,224745.375
413,289510.4375,273670.3125,309692.1875,278135.90625,681513.75,204516.0625,205115.703125,224383.890625
414,289541.65625,273706.78125,309671.90625,278098.28125,681547.75,204540.203125,205111.78125,224340.796875
415,289695.25,274341.84375,310097.65625,278587.59375,681940.375,204834.53125,205556.578125,224809.203125
416,289735.21875,274606.84375,310326.53125,278870.125,682209.875,204948.078125,205794.75,225097.1875
417,289596.0,274127.34375,310041.15625,278555.15625,681879.6875,204726.796875,205472.796875,224785.15625
418,289499.53125,273666.53125,309696.65625,278140.5625,681525.75,204513.46875,205101.21875,224365.84375
419,289527.4375,273724.46875,309685.3125,278118.84375,681550.25,204553.421875,205123.671875,224338.921875
420,289644.28125,274328.15625,310091.5625,278598.6875,681944.9375,204821.734375,205570.875,224802.859375
421,289597.96875,274439.75,310189.84375,278736.90625,682058.9375,204813.515625,205662.078125,224930.171875
422,289459.75,273916.0,309831.3125,278321.0,681643.3125,204519.90625,205211.46875,224476.078125
423,289428.1875,273539.3125,309566.9375,277991.6875,681448.1875,204397.6875,204908.28125,224120.953125
424,289481.84375,273626.125,309593.9375,278014.5,681505.875,204486.375,204971.140625,224138.46875
425,289510.8125,274142.90625,309902.65625,278399.84375,681785.375,204662.6875,205316.703125,224503.25
426,289452.78125,274313.6875,310031.5,278578.21875,681945.125,204685.125,205460.28125,224682.15625
427,289412.28125,273972.40625,309865.65625,278386.4375,681737.5625,204578.90625,205272.4375,224495.75
428,289500.625,273781.78125,309750.5,278201.09375,681577.6875,204603.234375,205147.984375,224324.171875
429,289533.0625,273779.65625,309713.65625,278140.125,681581.0625,204613.0625,205128.046875,224256.046875
430,289664.125,274338.875,310098.375,278592.875,681935.5625,204854.28125,205536.453125,224682.78125
431,289646.71875,274531.75,310266.53125,278810.5625,682137.625,204916.328125,205715.984375,224905.140625
432,289512.3125,274098.90625,310003.0625,278519.75,681826.6875,204732.78125,205420.40625,224619.03125
433,289484.25,273755.5,309771.9375,278234.34375,681585.75,204658.03125,205183.921875,224341.96875
434,289519.375,273802.0,309758.625,278212.0,681607.4375,204692.1875,205196.265625,224320.78125
435,289613.4375,274357.65625,310111.875,278629.96875,681929.0625,204898.09375,205568.015625,224716.21875
436,289569.46875,274484.625,310212.09375,278766.78125,682037.875,204889.515625,205659.578125,224844.796875
437,289449.375,273975.0,309888.71875,278399.125,681625.875,204632.28125,205263.046875,224444.875
438,289416.9375,273623.375,309658.65625,278123.40625,681486.0625,204547.0,205032.203125,224164.21875
439,289451.96875,273661.625,309639.09375,278094.78125,681535.1875,204577.390625,205041.59375,224128.015625
440,289536.5625,274201.03125,309978.375,278499.625,681837.5625,204772.203125,205404.21875,224504.328125
441,289539.3125,274410.59375,310150.5,278716.25,682023.625,204838.015625,205580.265625,224715.234375
442,289409.875,273939.96875,309851.59375,278375.4375,681657.0,204606.71875,205224.703125,224358.6875
443,289318.59375,273532.78125,309556.9375,278023.34375,681429.25,204457.9375,204920.53125,224009.8125
444,289362.125,273589.65625,309560.0625,278017.1875,681492.3125,204515.4375,204960.234375,224007.3125
445,289461.4375,274152.75,309931.71875,278459.65625,681852.0625,204740.921875,205369.09375,224436.109375
446,289541.65625,274456.28125,310196.71875,278772.5,682163.9375,204901.140625,205650.8125,224759.3125
447,289522.25,274114.9375,310026.5625,278570.0625,681939.0625,204803.046875,205444.734375,224560.03125
448,289455.8125,273703.90625,309735.8125,278215.5625,681613.0,204659.28125,205140.65625,224215.546875
449,289448.03125,273675.125,309648.65625,278098.53125,681549.5,204621.640625,205057.6875,224091.984375
450,289559.53125,274230.96875,310004.0625,278513.03125,681860.9375,204835.6875,205427.65625,224478.40625
451,289551.125,274425.4375,310174.09375,278734.9375,682054.5,204895.859375,205606.828125,224695.65625
452,289476.03125,274051.0,309969.0,278502.5625,681804.5625,204756.65625,205376.59375,224469.28125
453,289418.34375,273689.15625,309711.875,278188.21875,681555.5,204641.5,205120.453125,224173.53125
454,289432.65625,273694.625,309655.09375,278110.6875,681548.8125,204626.46875,205081.46875,224096.71875
455,289527.875,274213.09375,309983.9375,278495.25,681822.0,204814.234375,205416.203125,224449.703125
456,289510.34375,274382.875,310121.71875,278671.625,681962.5625,204845.796875,205545.671875,224614.84375
457,289443.40625,273985.8125,309887.09375,278397.78125,681651.6875,204684.40625,205254.828125,224317.734375
458,289380.375,273619.78125,309639.34375,278102.46875,681475.375,204578.203125,205014.953125,224025.28125
459,289362.84375,273548.53125,309517.40625,277945.75,681423.375,204510.328125,204894.703125,223852.546875
460,289446.53125,274052.0625,309822.375,278303.46875,681671.375,204682.0,205197.875,224161.984375
461,289481.03125,274349.0,310079.40625,278625.0625,681961.25,204840.875,205486.65625,224485.203125
462,289350.40625,273928.15625,309827.28125,278350.125,681688.25,204652.9375,205214.328125,224216.265625
463,289233.5625,273479.34375,309492.5625,277953.96875,681406.4375,204454.359375,204870.828125,223823.140625
464,289306.6875,273551.5625,309508.5625,277951.65625,681476.375,204526.078125,204919.90625,223818.578125
465,289485.0625,274198.0625,309953.625,278462.4375,681901.5,204841.140625,205404.21875,224318.0
466,289538.96875,274462.53125,310173.5625,278726.53125,682149.1875,204948.703125,205630.78125,224586.578125
467,289423.90625,274028.375,309905.96875,278425.40625,681816.1875,204750.75,205321.4375,224283.140625
468,289439.5625,273686.03125,309691.75,278148.96875,681555.3125,204679.5,205092.203125,224011.078125
469,289484.34375,273722.15625,309675.375,278112.84375,681558.4375,204719.90625,205093.453125,223970.921875
470,289556.3125,274247.96875,309999.75,278499.0,681843.0625,204904.625,205431.40625,224328.109375
471,289534.9375,274451.90625,310176.15625,278735.03125,682068.8125,204953.96875,205621.671875,224564.859375
472,289465.9375,274091.21875,309983.65625,278517.15625,681847.25,204812.984375,205398.953125,224351.078125
473,289363.375,273595.90625,309611.8125,278072.0625,681471.5625,204580.875,204991.703125,223898.6875
474,289360.34375,273504.53125,309472.96875,277896.03125,681355.25,204496.390625,204829.15625,223683.390625
475,289489.875,274113.5,309873.4375,278367.21875,681728.75,204763.265625,205260.28125,224118.359375
476,289518.5,274429.90625,310145.40625,278710.0,682066.9375,204931.4375,205587.25,224477.59375
477,289430.6875,274074.78125,309954.15625,278495.25,681866.75,204803.59375,205384.5625,224284.75
478,289340.75,273602.96875,309618.25,278086.65625,681509.75,204598.84375,205017.90625,223880.265625
479,289336.8125,273492.03125,309466.25,277892.1875,681383.375,204500.5,204833.453125,223653.265625
480,289435.78125,274034.625,309793.3125,278278.96875,681660.75,204697.109375,205158.171875,223991.046875
481,289373.65625,274237.9375,309946.65625,278491.03125,681837.6875,204742.609375,205330.640625,224203.46875
482,289229.71875,273816.75,309709.09375,278236.9375,681607.1875,204564.15625,205094.15625,223965.65625
483,289273.0625,273513.84375,309528.21875,277991.4375,681470.8125,204521.421875,204902.75,223731.5
484,289342.375,273566.9375,309520.09375,277955.65625,681521.8125,204567.109375,204913.375,223692.515625
485,289536.09375,274220.25,309960.96875,278454.75,681929.25,204865.453125,205373.921875,224165.125
486,289689.875,274602.71875,310304.71875,278849.75,682302.4375,205096.125,205729.3125,224564.59375
487,289507.0625,274084.34375,309976.5,278491.46875,681912.75,204839.703125,205357.90625,224206.609375
488,289424.4375,273675.125,309678.78125,278137.34375,681573.375,204657.859375,205049.546875,223861.578125
489,289434.28125,273707.75,309653.3125,278105.15625,681577.9375,204690.40625,205069.9375,223846.5625
490,289515.0,274235.53125,309990.5625,278510.875,681903.9375,204885.84375,205446.515625,224239.59375
491,289478.71875,274435.4375,310148.71875,278720.90625,682115.1875,204926.96875,205624.34375,224457.84375
492,289388.40625,274004.78125,309884.34375,278417.71875,681776.4375,204719.015625,205309.546875,224144.375
493,289332.4375,273591.0,309592.25,278064.84375,681486.0625,204562.109375,205000.015625,223786.84375
494,289356.125,273555.0625,309500.6875,277939.125,681433.125,204524.1875,204897.46875,223636.28125
495,289436.6875,274080.9375,309826.75,278327.15625,681709.625,204711.5,205240.34375,223986.84375
496,289428.375,274273.25,309986.25,278534.125,681851.0,204753.875,205397.25,224174.5
497,289323.9375,273940.40625,309808.25,278345.75,681666.625,204639.96875,205216.65625,223998.375
498,289212.28125,273511.59375,309502.28125,277989.71875,681436.125,204469.5625,204912.21875,223660.328125
499,289242.40625,273544.15625,309477.625,277947.875,681487.1875,204495.5,204916.15625,223628.046875
500,289347.28125,274089.53125,309814.875,278338.5,681780.0,204681.109375,205261.796875,223997.390625
501,289365.34375,274303.21875,310010.03125,278583.84375,681999.125,204762.46875,205468.15625,224244.515625
502,289330.84375,273931.90625,309826.125,278367.21875,681764.875,204631.125,205254.296875,224026.265625
503,289325.71875,273581.0625,309594.5625,278072.6875,681504.1875,204539.84375,205006.1875,223733.546875
504,289475.40625,273726.0,309684.40625,278143.34375,681589.5625,204690.21875,205120.984375,223810.625
505,289563.65625,274254.21875,310008.25,278520.53125,681865.8125,204879.3125,205453.046875,224169.765625
506,289522.96875,274420.15625,310135.46875,278694.78125,682010.5,204890.5,205561.84375,224339.28125
507,289427.65625,274027.3125,309920.4375,278461.09375,681765.0,204729.109375,205307.75,224114.515625
508,289376.34375,273671.65625,309686.125,278176.5,681564.0625,204624.78125,205074.40625,223856.046875
509,289418.1875,273696.6875,309672.15625,278150.5625,681592.1875,204650.53125,205091.484375,223845.40625
510,289506.96875,274155.875,309952.90625,278480.3125,681816.9375,204788.03125,205359.4375,224140.984375
511,289464.5,274193.0625,309953.25,278485.21875,681727.8125,204674.3125,205276.28125,224095.296875
512,289377.78125,273761.84375,309667.59375,278150.40625,681418.375,204463.84375,204899.4375,223711.5625
513,289361.3125,273495.96875,309501.03125,277955.21875,681409.5,204444.890625,204765.59375,223527.734375
514,289387.6875,273509.1875,309477.0,277928.84375,681455.25,204479.40625,204801.625,223508.609375
515,289488.0,274056.625,309823.53125,278342.4375,681769.625,204685.3125,205189.109375,223896.625
516,289464.84375,274278.8125,309995.65625,278566.75,681974.125,204735.1875,205385.265625,224122.921875
517,289397.4375,273914.65625,309801.71875,278349.15625,681746.9375,204604.65625,205179.375,223917.1875
518,289377.40625,273531.28125,309538.25,278018.34375,681481.75,204478.234375,204900.15625,223596.40625
519,289423.71875,273538.6875,309483.875,277927.15625,681475.3125,204486.46875,204851.609375,223502.078125
520,289521.625,274089.34375,309816.5625,278313.21875,681758.4375,204690.21875,205198.40625,223866.234375
521,289609.0625,274378.21875,310093.625,278645.625,682058.125,204857.328125,205488.984375,224200.609375
522,289547.5625,274028.46875,309923.3125,278451.15625,681855.1875,204766.578125,205303.109375,224019.390625
523,289451.4375,273616.5625,309625.84375,278091.3125,681554.1875,204610.03125,205006.09375,223679.109375
524,289496.21875,273610.5,309575.78125,278011.71875,681533.25,204628.359375,204967.5625,223596.3125
525,289570.25,274100.4375,309861.34375,278343.96875,681749.0625,204766.484375,205252.234375,223896.359375
526,289529.65625,274224.71875,309963.53125,278479.875,681828.8125,204761.125,205331.265625,224008.390625
527,289464.125,273835.71875,309764.0,278256.625,681591.375,204620.578125,205089.328125,223771.015625
528,289410.75,273452.40625,309505.96875,277944.9375,681433.375,204489.6875,204817.8125,223465.6875
529,289441.59375,273480.9375,309474.9375,277897.03125,681471.625,204522.234375,204811.8125,223422.0625
530,289528.34375,273982.6875,309781.875,278263.75,681723.875,204696.5625,205133.859375,223757.609375
531,289511.15625,274172.84375,309933.25,278461.71875,681866.8125,204725.359375,205285.671875,223937.40625
532,289426.0625,273787.78125,309706.3125,278208.40625,681584.125,204562.28125,205030.859375,223674.71875
533,289368.46875,273405.03125,309432.46875,277879.59375,681378.5625,204423.875,204759.0625,223347.671875
534,289371.6875,273362.125,309342.4375,277761.75,681352.8125,204384.09375,204676.09375,223216.0625
535,289504.53125,273932.71875,309712.65625,278191.78125,681680.6875,204614.5,205054.5625,223612.046875
536,289504.90625,274210.9375,309916.4375,278450.625,681894.25,204711.234375,205264.296875,223862.65625
537,289411.46875,273808.71875,309696.21875,278201.96875,681639.8125,204560.84375,205002.4375,223615.796875
538,289342.09375,273393.6875,309412.25,277856.15625,681420.125,204400.546875,204694.6875,223272.84375
539,289414.6875,273441.25,309400.71875,277813.875,681458.0625,204454.640625,204694.6875,223226.703125
540,289582.34375,274033.5625,309803.15625,278272.25,681803.5,204740.734375,205121.609375,223659.96875
541,289544.5,274215.40625,309950.59375,278469.9375,681962.5625,204750.125,205284.6875,223853.265625
542,289420.6875,273782.40625,309687.53125,278172.03125,681639.625,204535.640625,204975.78125,223552.59375
543,289367.9375,273381.78125,309406.375,277824.5,681385.4375,204388.390625,204660.71875,223200.328125
544,289397.25,273373.65625,309357.46875,277754.5,681403.0625,204406.4375,204622.8125,223125.859375
545,289512.6875,273929.03125,309715.4375,278170.5,681712.0625,204634.34375,204987.328125,223516.03125
546,289562.21875,274219.09375,309951.75,278457.96875,681952.3125,204752.359375,205223.71875,223800.78125
547,289474.15625,273844.28125,309734.5,278220.125,681690.125,204588.203125,204971.671875,223560.453125
548,289401.28125,273414.40625,309422.625,277848.125,681400.8125,204404.75,204631.390625,223176.640625
549,289406.5625,273381.25,309341.71875,277746.53125,681393.3125,204387.84375,204568.09375,223061.5625
550,289489.78125,273917.78125,309668.875,278134.03125,681683.8125,204583.65625,204915.625,223423.671875
551,289464.3125,274111.71875,309825.3125,278339.65625,681822.375,204619.765625,205071.09375,223621.25
552,289398.78125,273749.78125,309643.46875,278136.09375,681594.6875,204496.203125,204856.78125,223418.921875
553,289324.21875,273324.65625,309343.25,277771.5,681348.375,204335.359375,204535.09375,223056.46875
554,289366.9375,273361.75,309309.90625,277710.34375,681385.4375,204362.546875,204513.640625,222991.203125
555,289515.375,273971.5,309720.90625,278191.78125,681785.75,204643.015625,204955.5,223450.671875
556,289451.53125,274126.1875,309844.1875,278360.6875,681910.625,204648.203125,205082.625,223621.96875
557,289336.71875,273697.9375,309575.4375,278044.90625,681570.8125,204447.390625,204759.25,223297.328125
558,289365.15625,273385.375,309369.4375,277765.40625,681402.875,204387.125,204520.796875,223009.0
559,289373.75,273387.78125,309337.875,277720.09375,681428.0,204414.21875,204526.875,222975.46875
560,289416.65625,273866.28125,309643.125,278091.75,681700.5,204574.890625,204867.515625,223343.015625
561,289431.5,274127.34375,309856.34375,278355.5,681926.125,204659.640625,205097.5625,223619.296875
562,289391.8125,273772.59375,309665.90625,278132.96875,681672.625,204518.65625,204873.328125,223400.421875
563,289269.3125,273303.8125,309317.03125,277732.15625,681362.0,204284.671875,204513.46875,223000.0625
564,289322.0625,273339.125,309272.0625,277663.84375,681374.625,204278.953125,204489.859375,222932.90625
565,289484.875,273961.21875,309679.21875,278130.5625,681724.75,204571.765625,204924.296875,223385.9375
566,289470.65625,274172.59375,309876.90625,278396.8125,681949.9375,204676.8125,205162.734375,223671.765625
567,289442.78125,273887.28125,309724.03125,278212.0,681736.1875,204540.90625,204981.15625,223505.921875
568,289303.8125,273412.4375,309388.03125,277832.03125,681408.6875,204355.65625,204650.171875,223144.71875
569,289320.90625,273402.25,309342.09375,277779.1875,681427.1875,204381.140625,204635.421875,223105.46875
570,289478.4375,273962.21875,309715.1875,278209.3125,681756.25,204601.703125,205021.75,223523.171875
571,289496.3125,274248.59375,309967.03125,278520.8125,682037.6875,204747.625,205293.546875,223846.03125
572,289327.34375,273801.71875,309711.25,278257.40625,681776.0625,204529.5625,205044.09375,223618.125
573,289236.6875,273343.34375,309377.75,277858.75,681449.9375,204329.546875,204691.65625,223236.8125
574,289275.65625,273292.46875,309292.90625,277740.90625,681416.5,204305.953125,204608.234375,223112.984375
575,289368.46875,273839.375,309628.625,278132.875,681709.75,204497.546875,204963.09375,223488.671875
576,289312.40625,274030.34375,309790.1875,278355.5,681894.375,204531.25,205150.9375,223727.109375
577,289189.46875,273591.625,309526.96875,278069.46875,681570.625,204312.203125,204847.125,223447.265625
578,289079.0625,273147.8125,309191.15625,277678.3125,681281.5,204107.921875,204502.109375,223062.640625
579,289042.65625,273103.28125,309100.6875,277567.65625,681283.6875,204092.8125,204462.5,222975.203125
580,289280.65625,273799.125,309596.09375,278123.40625,681766.9375,204461.609375,205011.28125,223539.453125
581,289360.15625,274168.21875,309886.65625,278462.4375,682088.875,204622.90625,205332.796875,223908.609375
582,289335.5625,273879.25,309745.3125,278289.15625,681899.125,204539.84375,205176.78125,223760.015625
583,289261.0,273470.03125,309447.65625,277919.28125,681536.625,204385.4375,204879.40625,223413.65625
584,289256.4375,273440.34375,309379.28125,277828.25,681480.875,204386.859375,204856.78125,223341.6875
585,289354.34375,273966.78125,309720.8125,278221.125,681792.5,204592.671875,205223.625,223729.265625
586,289326.90625,274172.5,309891.3125,278434.53125,681987.8125,204630.59375,205390.546875,223940.890625
587,289206.1875,273759.625,309649.375,278159.78125,681699.0625,204434.34375,205100.328125,223657.640625
588,289118.84375,273315.625,309330.8125,277776.21875,681411.3125,204251.234375,204750.125,223261.84375
589,289136.28125,273319.90625,309279.5,277697.1875,681423.1875,204259.109375,204723.921875,223171.453125
590,289256.09375,273877.625,309639.8125,278110.625,681742.375,204485.65625,205112.9375,223546.609375
591,289251.71875,274067.625,309806.46875,278322.40625,681914.125,204532.859375,205288.171875,223734.453125
592,289143.34375,273644.375,309540.90625,278019.78125,681571.3125,204327.765625,204973.203125,223404.171875
593,289075.40625,273247.0625,309261.25,277681.0,681339.6875,204189.28125,204678.328125,223053.25
594,289111.78125,273253.9375,309224.5,277619.5,681371.3125,204221.015625,204657.40625,222976.546875
595,289180.8125,273767.65625,309540.21875,277997.5,681657.4375,204415.75,204993.765625,223316.5625
596,289154.96875,274019.78125,309721.53125,278229.78125,681863.5,204473.59375,205186.78125,223532.46875
597,289073.4375,273672.1875,309535.375,278018.0,681645.875,204334.65625,204979.546875,223319.515625
598,289118.125,273336.0,309348.34375,277767.03125,681430.9375,204278.5,204768.0,223060.9375
599,289201.09375,273362.84375,309339.03125,277722.5,681443.375,204335.640625,204758.171875,223005.328125
600,289232.40625,273813.96875,309600.28125,278035.875,681654.5,204468.671875,205019.6875,223289.28125
601,289262.4375,274129.84375,309848.3125,278343.4375,681933.9375,204595.265625,205276.28125,223595.78125
602,289202.8125,273776.15625,309659.90625,278137.4375,681703.625,204460.625,205055.09375,223382.1875
603,289168.65625,273382.59375,309394.03125,277807.53125,681432.0625,204354.140625,204769.609375,223050.03125
604,289201.46875,273384.5625,309353.0625,277744.9375,681440.5,204376.578125,204756.5625,222985.390625
605,289250.0,273839.28125,309623.34375,278071.0,681651.4375,204498.171875,205037.390625,223281.6875
606,289223.90625,274076.03125,309807.34375,278316.59375,681859.25,204538.3125,205219.953125,223519.328125
607,289131.625,273698.09375,309596.625,278088.4375,681619.25,204376.5,204966.84375,223289.640625
608,289060.5625,273262.96875,309284.78125,277715.625,681355.0625,204205.90625,204616.90625,222908.421875
609,289060.375,273174.09375,309151.71875,277547.96875,681281.5,204137.6875,204473.140625,222713.328125
610,289184.375,273728.0625,309508.03125,277971.40625,681613.0,204374.796875,204852.765625,223092.140625
611,289195.65625,274029.625,309738.25,278268.3125,681856.25,204481.28125,205108.5625,223376.90625
612,289126.625,273695.15625,309549.15625,278057.15625,681617.125,204342.34375,204887.1875,223155.09375
613,289056.96875,273287.71875,309261.25,277710.96875,681363.5625,204200.265625,204579.171875,222798.171875
614,289068.25,273255.09375,309194.75,277623.4375,681368.3125,204201.609375,204540.734375,222705.109375
615,289178.3125,273791.28125,309538.9375,278027.09375,681668.625,204411.453125,204901.578125,223080.171875
616,289172.5,274053.0625,309746.1875,278292.03125,681903.5625,204492.1875,205116.6875,223344.8125
617,289102.46875,273698.375,309561.5625,278086.375,681684.25,204355.390625,204898.8125,223137.75
618,289054.21875,273292.28125,309277.625,277738.9375,681404.5,204209.21875,204589.28125,222782.625
619,289134.75,273311.15625,309250.15625,277674.65625,681418.0,204252.390625,204572.390625,222710.109375
620,289253.40625,273848.03125,309599.125,278075.28125,681708.6875,204470.640625,204938.421875,223080.171875
621,289229.0,274095.34375,309784.90625,278313.84375,681903.125,204530.265625,205134.84375,223311.640625
622,289108.5625,273690.6875,309547.28125,278051.25,681625.0625,204333.484375,204857.234375,223049.3125
623,289047.3125,273256.53125,309241.59375,277678.875,681360.4375,204142.78125,204503.546875,222667.546875
624,289070.65625,273236.9375,309170.78125,277579.53125,681348.6875,204141.0,204427.28125,222555.703125
625,289174.625,273793.5,309540.03125,278017.34375,681694.375,204403.9375,204818.96875,222972.515625
626,289177.59375,274060.21875,309758.4375,278297.375,681939.0625,204482.796875,205049.109375,223251.46875
627,289047.0625,273624.625,309487.28125,277994.90625,681617.125,204251.953125,204728.046875,222940.515625
628,288964.78125,273154.96875,309125.0,277551.625,681269.6875,204015.46875,204307.5625,222476.3125
629,289051.53125,273185.09375,309125.625,277525.8125,681306.0625,204094.5,204322.671875,222432.40625
630,289184.5625,273763.09375,309523.9375,277993.03125,681675.3125,204384.265625,204760.671875,222875.15625
631,289172.40625,274062.09375,309746.71875,278275.9375,681929.9375,204487.890625,204996.625,223163.21875
632,289023.625,273633.03125,309483.4375,277989.46875,681633.75,204267.328125,204699.609375,222881.140625
633,288952.0,273169.25,309150.03125,277586.15625,681306.75,204060.34375,204323.65625,222463.078125
634,289005.65625,273203.6875,309132.34375,277545.1875,681338.0,204139.296875,204338.234375,222419.625
635,289088.71875,273733.59375,309481.1875,277961.375,681680.0625,204367.28125,204747.0,222834.296875
636,289078.0625,273966.78125,309659.75,278183.375,681871.125,204403.671875,204934.65625,223059.15625
637,288973.125,273591.96875,309445.25,277941.8125,681596.1875,204239.34375,204691.5625,222823.921875
638,289017.375,273271.8125,309262.875,277702.125,681389.625,204210.734375,204503.546875,222595.21875
639,289132.25,273309.625,309262.59375,277676.09375,681425.4375,204277.875,204520.265625,222571.96875
640,289206.90625,273792.6875,309549.15625,278022.0,681644.0,204425.046875,204825.046875,222895.09375
641,289194.5625,274067.96875,309753.09375,278289.15625,681872.4375,204494.875,205053.65625,223172.171875
642,289102.40625,273737.0,309577.3125,278103.46875,681686.5,204373.453125,204884.6875,223014.359375
643,289062.96875,273343.0625,309298.71875,277766.75,681416.5,204217.265625,204598.671875,222690.265625
644,289055.71875,273322.6875,309235.59375,277697.5625,681426.5625,204228.4375,204606.890625,222648.59375
645,289128.6875,273818.71875,309550.5,278080.21875,681736.75,204425.40625,204985.625,223036.265625
646,289131.28125,274073.34375,309746.71875,278336.71875,681973.5625,204494.875,205205.921875,223301.09375
647,289030.0625,273720.0,309552.53125,278132.5,681765.875,204338.671875,205005.375,223115.84375
648,288955.40625,273250.34375,309202.0625,277710.25,681391.1875,204112.828125,204616.640625,222691.6875
649,288976.59375,273146.75,309051.40625,277516.59375,681256.1875,204034.15625,204441.046875,222463.171875
650,289132.625,273699.625,309437.375,277971.40625,681602.25,204312.03125,204857.953125,222878.46875
651,289142.90625,274020.59375,309696.125,278299.25,681887.5625,204444.625,205148.4375,223205.96875
652,289044.8125,273665.46875,309508.03125,278096.65625,681673.1875,204304.25,204946.28125,223016.234375
653,288980.1875,273216.375,309196.625,277713.03125,681352.0,204134.734375,204605.28125,222630.984375
654,288951.03125,273124.90625,309070.90625,277557.1875,681306.5,204087.796875,204492.359375,222473.265625
655,289043.46875,273663.5,309405.28125,277952.375,681617.3125,204307.46875,204853.84375,222849.859375
656,289122.34375,274059.125,309723.5625,278331.625,681979.8125,204513.828125,205200.109375,223237.875
657,289066.375,273749.875,309581.96875,278179.1875,681827.8125,204403.5,205047.21875,223105.109375
658,289016.375,273317.78125,309291.90625,277825.84375,681479.75,204226.640625,204726.515625,222765.359375
659,288975.71875,273163.8125,309116.6875,277611.09375,681334.6875,204122.40625,204539.65625,222545.15625
660,289234.1875,273850.71875,309612.28125,278157.625,681792.6875,204511.3125,205039.265625,223076.140625
661,289301.6875,274219.96875,309902.75,278495.78125,682106.3125,204672.609375,205317.59375,223430.375
662,289166.9375,273838.9375,309676.625,278250.71875,681855.3125,204469.65625,205053.125,223208.546875
663,289052.78125,273347.90625,309320.09375,277825.9375,681477.8125,204244.796875,204661.609375,222798.0
664,289073.96875,273294.96875,309230.40625,277709.09375,681442.875,204229.953125,204588.921875,222687.3125
665,289180.09375,273823.28125,309560.59375,278096.75,681735.1875,204414.484375,204953.25,223056.921875
666,289199.5,274107.59375,309781.15625,278370.59375,681972.0625,204501.3125,205197.703125,223325.765625
667,289097.84375,273730.75,309555.9375,278118.21875,681709.3125,204340.8125,204963.71875,223075.515625
668,289001.71875,273232.5625,309174.71875,277660.34375,681334.3125,204105.59375,204551.90625,222596.921875
669,289062.25,273266.8125,309165.3125,277634.34375,681378.75,204182.484375,204602.421875,222574.03125
670,289242.75,273858.40625,309566.84375,278088.25,681734.25,204469.03125,205045.4375,223004.34375
671,289310.53125,274177.59375,309815.3125,278380.8125,681974.75,204591.34375,205297.03125,223276.40625
672,289209.3125,273841.6875,309638.1875,278196.1875,681770.8125,204463.75,205123.125,223095.359375
673,289085.84375,273387.875,309314.8125,277817.96875,681442.375,204276.984375,204808.5,222728.4375
674,289049.375,273302.21875,309201.34375,277684.9375,681412.875,204243.1875,204738.140625,222602.90625
675,289083.625,273743.34375,309457.6875,277996.78125,681646.25,204371.671875,205023.0,222894.5625
676,289051.6875,273958.46875,309608.40625,278192.78125,681799.125,204364.609375,205150.046875,223075.15625
677,289000.8125,273605.46875,309425.125,277977.75,681550.25,204208.234375,204894.703125,222846.1875
678,289036.15625,273281.1875,309239.875,277729.1875,681376.4375,204167.015625,204658.21875,222596.65625
679,289049.28125,273240.625,309170.6875,277627.71875,681388.5625,204179.53125,204578.734375,222500.359375
680,289044.09375,273642.6875,309390.4375,277899.875,681569.25,204247.75,204784.8125,222748.46875
681,288993.5,273862.625,309541.09375,278099.53125,681718.75,204271.96875,204906.59375,222934.34375
682,288867.78125,273462.34375,309301.03125,277836.65625,681473.1875,204073.9375,204615.125,222667.015625
683,288763.53125,272974.625,308963.625,277435.0625,681232.3125,203868.84375,204242.65625,222262.265625
684,288720.0,272858.84375,308820.125,277259.53125,681171.3125,203804.46875,204106.3125,222082.03125
685,288793.59375,273362.28125,309131.25,277627.625,681470.9375,203997.40625,204433.359375,222425.4375
686,288775.53125,273641.59375,309333.6875,277881.71875,681689.625,204064.46875,204637.03125,222683.375
687,288695.5,273275.03125,309118.65625,277634.6875,681440.1875,203890.921875,204365.765625,222434.015625
688,288617.71875,272832.375,308801.96875,277251.21875,681198.5625,203707.1875,204017.96875,222047.0625
689,288655.90625,272807.15625,308743.5,277163.6875,681201.625,203730.265625,203993.65625,221958.46875
690,288784.375,273335.21875,309085.125,277561.03125,681481.625,203946.625,204364.953125,222321.90625
691,288790.71875,273613.4375,309287.375,277814.0625,681657.5,204028.609375,204571.671875,222551.953125
692,288706.9375,273293.1875,309114.4375,277628.71875,681452.25,203904.78125,204389.90625,222367.953125
693,288576.59375,272823.09375,308771.5625,277240.21875,681185.6875,203691.640625,204049.890625,221984.125
694,288485.5,272661.0625,308591.40625,277051.125,681133.3125,203563.6875,203907.28125,221802.625
695,288625.9375,273213.15625,308955.03125,277473.5,681507.75,203794.09375,204289.671875,222205.59375
696,288791.34375,273665.28125,309344.84375,277921.4375,681918.75,204060.96875,204683.25,222650.75
697,288737.625,273342.1875,309189.28125,277742.4375,681728.875,203935.0,204487.453125,222486.859375
698,288653.03125,272876.375,308852.40625,277329.1875,681353.0625,203742.953125,204091.375,222075.140625
699,288691.46875,272848.65625,308783.375,277234.15625,681322.25,203752.96875,204021.71875,221976.890625
700,288818.15625,273391.71875,309133.3125,277640.6875,681623.1875,203982.75,204390.703125,222363.5625
701,288832.75,273689.96875,309353.6875,277914.625,681849.125,204061.875,204612.171875,222626.25
702,288769.09375,273354.96875,309177.3125,277722.0625,681616.375,203918.46875,204403.9375,222432.140625
703,288717.75,272964.96875,308938.6875,277445.59375,681358.8125,203825.296875,204175.78125,222174.65625
704,288752.625,272942.0,308894.3125,277383.1875,681393.25,203842.015625,204170.765625,222137.546875
705,288898.8125,273494.25,309257.40625,277799.46875,681748.875,204072.15625,204544.9375,222538.984375
706,288865.5625,273622.28125,309317.84375,277866.25,681746.9375,204005.1875,204536.4375,222579.671875
707,288819.78125,273175.25,309025.9375,277508.71875,681284.0,203766.734375,204119.265625,222154.265625
708,288779.1875,272826.375,308803.75,277251.5,681143.8125,203701.375,203908.8125,221874.953125
709,288760.3125,272751.09375,308707.65625,277142.25,681138.0625,203691.1875,203879.75,221758.28125
710,288910.71875,273344.40625,309110.78125,277619.125,681536.8125,203971.125,204360.21875,222213.546875
711,288891.40625,273631.84375,309317.84375,277895.9375,681752.8125,204035.671875,204599.46875,222480.875
712,288756.75,273322.875,309117.40625,277685.84375,681535.9375,203868.65625,204395.890625,222290.25
713,288686.46875,272908.71875,308848.28125,277369.59375,681302.375,203740.625,204124.71875,221996.375
714,288752.28125,272844.1875,308787.125,277281.1875,681312.4375,203734.1875,204067.328125,221914.296875
715,288989.90625,273463.40625,309211.1875,277746.71875,681667.0625,204040.953125,204475.109375,222349.4375
716,289044.375,273847.59375,309513.28125,278112.40625,682010.6875,204209.296875,204789.640625,222718.421875
717,289042.125,273584.03125,309431.65625,278017.90625,681904.25,204162.71875,204680.75,222635.71875
718,288954.59375,273109.8125,309106.21875,277628.875,681502.0625,203984.09375,204307.03125,222246.796875
719,288922.78125,272980.09375,308960.9375,277450.34375,681379.375,203930.984375,204154.859375,222068.703125
720,289035.59375,273521.71875,309319.0,277871.71875,681713.8125,204176.125,204522.765625,222477.390625
721,289050.34375,273783.03125,309513.84375,278109.34375,681905.0,204211.265625,204669.03125,222703.5
722,289003.5,273454.65625,309334.65625,277890.21875,681656.6875,204094.59375,204409.65625,222480.6875
723,288944.3125,272936.375,308963.71875,277432.375,681258.3125,203863.921875,203957.171875,221996.109375
724,289020.9375,272957.625,308944.84375,277393.3125,681274.75,203925.875,203960.84375,221942.375
725,289142.4375,273542.1875,309318.28125,277835.6875,681619.1875,204183.28125,204403.859375,222371.796875
726,289071.5625,273766.25,309475.75,278054.5625,681800.0625,204206.265625,204611.359375,222593.078125
727,288926.8125,273336.1875,309214.9375,277777.03125,681485.5625,203997.9375,204341.265625,222303.484375
728,288880.9375,272932.5,308931.4375,277434.15625,681242.25,203843.8125,204051.40625,221958.375
729,288889.25,272914.09375,308881.625,277370.21875,681293.875,203875.71875,204064.1875,221908.484375
730,288999.9375,273447.78125,309237.21875,277792.21875,681633.625,204112.921875,204465.1875,222318.421875
731,289013.96875,273774.625,309472.53125,278079.84375,681902.5625,204212.78125,204703.8125,222611.40625
732,289007.0,273520.8125,309372.125,277956.28125,681760.1875,204169.609375,204550.65625,222490.4375
733,289050.4375,273186.0625,309194.90625,277720.0,681508.1875,204113.8125,204341.359375,222266.203125
734,289099.09375,273108.03125,309102.28125,277580.59375,681396.8125,204107.28125,204229.328125,222129.234375
735,289187.96875,273604.3125,309414.3125,277940.65625,681651.875,204321.15625,204541.265625,222473.546875
736,289197.34375,273885.6875,309633.53125,278212.09375,681882.125,204387.9375,204756.203125,222748.203125
737,289096.03125,273521.15625,309428.09375,277993.65625,681633.75,204229.328125,204509.703125,222533.625
738,288989.5625,273093.71875,309121.34375,277638.71875,681357.5625,204069.46875,204180.875,222192.625
739,288987.40625,273017.375,309012.0625,277499.25,681344.0625,204037.375,204081.984375,222066.46875
740,289088.28125,273505.15625,309317.21875,277858.21875,681613.6875,204222.71875,204401.609375,222406.21875
741,289099.625,273825.96875,309547.0,278140.28125,681853.25,204323.828125,204638.640625,222686.5
742,289034.1875,273492.90625,309368.09375,277938.6875,681623.5625,204193.921875,204427.546875,222479.796875
743,288987.40625,273047.21875,309065.90625,277568.53125,681316.3125,204035.671875,204094.140625,222094.0
744,289037.75,273045.96875,309022.0,277493.0,681333.4375,204090.296875,204089.234375,222021.765625
745,289203.0625,273600.21875,309380.6875,277896.84375,681631.6875,204337.953125,204479.3125,222403.71875
746,289159.875,273880.6875,309582.03125,278154.40625,681850.8125,204404.5625,204708.015625,222663.890625
747,289033.625,273511.96875,309374.625,277935.65625,681614.875,204236.75,204490.390625,222457.796875
748,288992.875,273123.40625,309113.1875,277608.59375,681359.375,204121.859375,204219.5,222152.03125
749,289018.0,273049.90625,309027.28125,277495.65625,681352.8125,204124.71875,204168.625,222054.125
750,289122.0625,273534.59375,309310.53125,277820.5,681570.4375,204297.1875,204460.0,222351.40625
751,289090.59375,273827.03125,309517.59375,278080.65625,681790.3125,204391.25,204677.078125,222606.21875
752,289019.6875,273517.0625,309360.59375,277900.875,681602.0625,204223.875,204500.046875,222442.875
753,289012.375,273121.78125,309117.84375,277591.6875,681365.875,204107.015625,204222.09375,222143.53125
754,289012.90625,273013.25,308996.53125,277434.6875,681323.5625,204070.8125,204090.21875,221983.5
755,289118.5,273523.0625,309324.65625,277811.28125,681622.1875,204277.34375,204417.984375,222340.046875
756,289153.8125,273884.625,309611.375,278151.75,681935.5,204420.921875,204707.296875,222686.6875
757,289063.59375,273526.4375,309417.8125,277932.0625,681703.75,204269.734375,204467.421875,222474.515625
758,288958.71875,273048.375,309074.03125,277518.90625,681342.6875,204066.609375,204074.921875,222053.859375
759,288913.125,272886.46875,308900.3125,277299.78125,681240.5,203971.21875,203895.9375,221825.25
760,289017.28125,273396.1875,309220.75,277668.75,681525.5625,204176.125,204230.40625,222160.171875
761,289009.6875,273708.125,309445.0,277944.75,681744.0,204262.140625,204451.421875,222422.484375
762,289033.5625,273481.90625,309376.84375,277858.03125,681627.375,204233.4375,204335.28125,222327.453125
763,288942.34375,273043.65625,309081.53125,277498.4375,681339.125,204076.625,204002.234375,221967.859375
764,288919.8125,272947.0,308953.78125,277327.3125,681267.875,204035.046875,203877.15625,221794.21875
765,289063.15625,273459.9375,309294.875,277711.75,681536.75,204252.75,204216.09375,222136.03125
766,289072.25,273798.0625,309545.65625,278010.46875,681790.1875,204375.421875,204458.75,222419.8125
767,289032.03125,273516.4375,309415.75,277851.25,681609.5,204283.234375,204283.421875,222264.5
768,288964.34375,273111.875,309127.6875,277492.28125,681324.9375,204140.09375,203953.234375,221904.28125
769,288957.90625,273002.0625,309019.6875,277353.0625,681298.5625,204123.734375,203854.0,221761.40625
770,289030.25,273471.1875,309313.125,277705.34375,681545.5,204303.984375,204151.359375,222074.78125
771,289038.28125,273781.6875,309541.90625,277995.90625,681764.5625,204387.40625,204371.3125,222348.28125
772,288995.03125,273499.1875,309395.8125,277828.875,681562.0,204274.21875,204172.5625,222169.203125
773,288962.46875,273140.5625,309165.84375,277541.34375,681372.0625,204181.9375,203919.09375,221880.40625
774,288943.25,273041.6875,309065.28125,277418.34375,681372.375,204175.421875,203852.390625,221764.90625
775,289006.28125,273445.96875,309287.1875,277679.40625,681508.0,204283.515625,204060.0,221983.5
776,289024.25,273755.875,309497.125,277943.34375,681651.0,204360.484375,204237.375,222208.359375
777,288926.8125,273480.40625,309365.59375,277802.59375,681495.25,204287.265625,204090.125,222085.953125
778,288849.90625,273050.53125,309076.53125,277456.78125,681264.75,204147.796875,203777.90625,221742.8125
779,288860.8125,272987.5,308968.53125,277315.96875,681228.5625,204149.3125,203683.328125,221596.09375
780,288946.1875,273446.34375,309265.8125,277675.375,681493.8125,204358.078125,204019.046875,221929.671875
781,289013.6875,273832.65625,309569.34375,278043.1875,681796.25,204540.203125,204347.25,222291.234375
782,289013.4375,273628.375,309487.71875,277940.46875,681675.3125,204510.421875,204243.359375,222201.296875
783,288910.625,273178.65625,309166.5625,277555.125,681343.0,204344.671875,203881.984375,221815.328125
784,288901.21875,273034.53125,309039.625,277401.96875,681299.0,204326.0625,203769.15625,221666.546875
785,288974.1875,273517.9375,309321.4375,277730.53125,681535.3125,204523.390625,204060.703125,221971.875
786,289010.65625,273859.84375,309569.09375,278034.0625,681757.5,204653.296875,204299.0625,222260.296875
787,288886.3125,273523.0625,309373.71875,277827.625,681528.6875,204529.5625,204061.328125,222057.890625
788,288834.09375,273083.53125,309079.9375,277463.5625,681286.9375,204382.9375,203723.546875,221706.78125
789,288888.09375,273032.65625,309029.5,277384.8125,681313.1875,204425.671875,203697.359375,221637.9375
790,289010.65625,273548.09375,309348.5,277768.625,681569.0,204661.796875,204046.765625,221980.453125
791,289043.28125,273925.28125,309616.1875,278097.90625,681852.875,204815.125,204354.5,222316.984375
792,289012.28125,273661.1875,309502.46875,277970.34375,681714.125,204748.15625,204226.46875,222204.25
793,288936.0,273233.625,309177.75,277570.78125,681381.0,204574.171875,203853.109375,221805.671875
794,288894.15625,273104.4375,309019.6875,277373.4375,681290.9375,204551.46875,203705.3125,221612.90625
795,289021.46875,273614.0625,309331.96875,277737.96875,681555.3125,204772.5625,204040.5,221954.359375
796,289018.875,273863.5,309546.09375,278025.84375,681754.25,204890.3125,204270.640625,222227.21875
797,288919.125,273491.5625,309287.375,277724.5625,681416.125,204685.03125,203936.875,221903.5625
798,288817.09375,273074.6875,309000.71875,277392.6875,681206.0,204554.0625,203635.046875,221564.453125
799,288692.8125,272845.0,308808.6875,277194.90625,681134.9375,204485.5625,203496.375,221390.28125
800,288855.71875,273406.375,309185.25,277621.65625,681537.375,204802.703125,203918.46875,221831.234375
801,288984.03125,273834.625,309505.875,277985.25,681848.0625,204973.640625,204232.28125,222196.375
802,289140.9375,273775.90625,309580.53125,278045.53125,681877.625,205086.46875,204278.0625,222264.953125
803,289111.4375,273434.53125,309343.6875,277752.4375,681560.625,204998.671875,204001.703125,221971.703125
804,288905.875,273168.375,309065.0,277439.0625,681367.5,204879.765625,203782.46875,221716.4375
805,289099.96875,273692.46875,309458.84375,277891.46875,681737.0,205155.140625,204227.625,222172.234375
806,289119.5625,274011.75,309716.34375,278224.78125,682023.375,205294.4375,204523.5625,222518.875
807,289005.75,273630.96875,309468.3125,277946.8125,681728.9375,205097.46875,204249.625,222265.484375
808,288894.96875,273191.25,309169.15625,277603.21875,681395.375,204951.734375,203939.375,221932.53125
809,288864.125,273107.84375,309071.09375,277489.84375,681375.8125,204964.875,203900.484375,221855.375
810,288997.15625,273602.71875,309375.4375,277834.96875,681633.9375,205181.328125,204230.046875,222201.46875
811,289051.6875,274015.3125,309653.46875,278170.15625,681931.0,205318.84375,204520.171875,222540.140625
812,288915.0,273584.28125,309383.375,277860.28125,681607.1875,205101.21875,204201.171875,222246.53125
813,288834.34375,273067.78125,309036.9375,277440.40625,681262.0625,204911.5,203806.25,221821.5
814,288860.28125,272971.9375,308908.1875,277267.875,681175.375,204884.0625,203671.78125,221636.25
815,288974.71875,273490.6875,309243.46875,277659.28125,681483.5625,205143.0625,204056.78125,222017.390625
816,288995.375,273873.0625,309528.125,278012.96875,681793.75,205302.484375,204397.859375,222388.78125
817,288874.21875,273544.59375,309343.34375,277820.5,681592.875,205161.125,204222.265625,222219.796875
818,288815.5625,273136.09375,309069.9375,277487.34375,681327.0625,205030.859375,203951.453125,221912.6875
819,288891.3125,273095.9375,309011.375,277392.21875,681335.3125,205068.0625,203918.375,221832.671875
820,288949.5,273557.75,309275.1875,277710.78125,681566.0625,205229.53125,204216.28125,222142.375
821,288977.5,273921.1875,309557.71875,278057.40625,681894.625,205374.984375,204537.78125,222520.65625
822,288905.78125,273611.65625,309395.625,277874.5,681701.9375,205247.578125,204349.3125,222363.75
823,288891.9375,273214.875,309141.28125,277552.625,681387.875,205129.921875,204062.40625,222056.28125
824,288906.6875,273115.4375,309027.71875,277406.09375,681328.25,205115.53125,203976.578125,221926.375
825,289030.96875,273634.53125,309354.9375,277786.5,681614.4375,205340.484375,204344.484375,222301.515625
826,289066.625,274009.0625,309628.4375,278127.78125,681920.375,205470.125,204650.703125,222652.984375
827,289031.9375,273783.03125,309526.625,278019.15625,681802.0625,205389.75,204543.234375,222567.421875
828,288950.59375,273286.21875,309217.0,277657.21875,681457.1875,205204.9375,204224.859375,222225.96875
829,288907.5,273118.5625,309033.71875,277436.84375,681338.25,205111.953125,204051.59375,222016.578125
830,289011.09375,273599.03125,309312.65625,277764.15625,681576.0625,205291.75,204347.078125,222328.875
831,289025.3125,273946.125,309562.8125,278088.625,681848.875,205390.015625,204624.15625,222656.734375
832,288937.71875,273630.53125,309394.125,277918.84375,681655.5625,205242.046875,204446.234375,222498.484375
833,288885.21875,273204.9375,309114.09375,277588.75,681357.4375,205092.734375,204156.015625,222174.109375
834,288893.53125,273103.71875,308999.90625,277449.1875,681326.0625,205058.3125,204080.109375,222044.296875
835,289004.3125,273590.5625,309288.4375,277790.0,681563.1875,205226.03125,204392.671875,222359.453125
836,289034.28125,273960.59375,309559.0625,278134.84375,681856.1875,205358.0,204689.0625,222698.84375
837,288952.8125,273634.0,309379.09375,277939.65625,681628.9375,205193.140625,204471.4375,222500.453125
838,288885.125,273208.59375,309078.40625,277571.65625,681314.4375,205041.59375,204119.984375,222127.890625
839,288883.4375,273102.03125,308966.3125,277436.9375,681293.25,204993.40625,204031.921875,221997.890625
840,288995.1875,273579.65625,309272.6875,277803.40625,681572.9375,205150.21875,204377.75,222344.796875
841,289038.125,273943.09375,309550.125,278148.53125,681875.125,205269.3125,204680.390625,222683.28125
842,288933.6875,273621.84375,309357.625,277943.59375,681641.875,205098.0,204463.9375,222476.578125
843,288844.90625,273163.46875,309038.0,277567.71875,681307.875,204902.828125,204120.25,222104.921875
844,288844.1875,273028.8125,308906.9375,277407.25,681260.8125,204848.734375,204006.4375,221948.71875
845,288979.375,273560.59375,309246.78125,277803.84375,681563.9375,205083.171875,204365.671875,222318.421875
846,289094.15625,274024.625,309610.375,278234.0,681959.375,205288.359375,204745.65625,222750.875
847,289008.4375,273708.46875,309443.65625,278056.875,681771.5,205105.96875,204550.75,222582.96875
848,288918.40625,273231.125,309116.40625,277668.40625,681393.25,204892.734375,204182.390625,222195.21875
849,288924.375,273119.28125,308994.1875,277507.46875,681317.0625,204851.0625,204054.71875,222033.5625
850,289038.1875,273608.96875,309304.875,277871.8125,681582.625,205033.28125,204378.734375,222373.671875
851,289069.59375,273954.625,309560.59375,278187.6875,681840.0,205117.40625,204627.90625,222673.359375
852,288974.90625,273595.28125,309353.625,277953.78125,681571.625,204912.671875,204360.21875,222428.5625
853,288902.84375,273127.4375,309027.71875,277558.96875,681252.9375,204710.34375,203977.46875,222011.3125
854,288918.03125,273053.46875,308940.375,277445.4375,681237.9375,204715.171875,203917.03125,221897.40625
855,289042.40625,273572.03125,309269.75,277839.4375,681528.875,204909.71875,204285.75,222268.53125
856,289082.8125,273931.375,309537.4375,278175.78125,681800.75,205008.6875,204564.78125,222591.734375
857,288967.46875,273595.46875,309332.78125,277955.125,681540.5,204826.125,204319.546875,222367.140625
858,288839.625,273092.71875,308980.15625,277548.5,681205.0,204597.0625,203937.140625,221959.453125
859,288831.84375,272972.5625,308852.125,277388.5625,681162.9375,204551.375,203826.109375,221810.59375
860,288977.5,273510.8125,309191.0625,277776.21875,681457.8125,204781.421875,204179.984375,222176.96875
861,289120.46875,274016.5,309588.75,278236.0625,681874.9375,205029.703125,204596.796875,222639.390625
862,289102.9375,273781.625,309503.5625,278138.25,681759.4375,204959.34375,204489.6875,222555.4375
863,289017.53125,273311.875,309189.375,277760.21875,681380.875,204769.171875,204141.359375,222183.859375
864,288966.75,273126.96875,309007.0625,277536.15625,681258.5625,204672.703125,203961.375,221966.953125
865,289000.03125,273536.0,309226.9375,277800.0,681439.5625,204785.4375,204194.28125,222212.828125
866,289016.84375,273886.5,309483.15625,278120.8125,681700.625,204873.0625,204464.015625,222533.625
867,289074.9375,273729.75,309477.0,278104.09375,681663.0625,204874.84375,204443.8125,222536.484375
868,289176.5,273450.4375,309346.71875,277906.59375,681440.875,204876.1875,204281.359375,222347.46875
869,289224.78125,273395.03125,309271.34375,277788.3125,681364.375,204909.890625,204210.109375,222243.5
870,289334.21875,273951.03125,309622.0,278198.59375,681697.5,205143.25,204603.9375,222662.453125
871,289316.0,274271.28125,309863.5,278512.84375,682000.3125,205183.296875,204881.203125,222998.359375
872,289200.65625,273866.5625,309627.1875,278253.21875,681722.6875,204952.625,204600.8125,222752.046875
873,289124.9375,273347.1875,309263.03125,277809.9375,681302.3125,204725.53125,204167.375,222290.703125
874,289085.9375,273195.8125,309097.46875,277607.25,681217.625,204654.375,204013.046875,222085.0625
875,289146.90625,273633.5625,309344.84375,277901.84375,681429.875,204787.59375,204279.21875,222351.40625
876,289120.375,273906.4375,309529.84375,278140.90625,681567.9375,204822.1875,204458.21875,222571.96875
877,289031.21875,273617.375,309372.65625,277973.28125,681360.3125,204693.078125,204275.546875,222406.65625
878,289001.0,273262.53125,309153.875,277704.25,681204.3125,204592.140625,204059.640625,222155.96875
879,289000.28125,273168.46875,309034.25,277543.59375,681171.3125,204552.265625,203966.03125,222018.453125
880,289142.4375,273684.59375,309366.75,277929.46875,681468.0,204777.21875,204333.046875,222395.84375
881,289091.5625,273990.03125,309577.40625,278218.25,681711.6875,204822.71875,204574.34375,222687.21875
882,288977.125,273684.0625,309406.8125,278032.1875,681529.375,204657.59375,204396.875,222537.203125
883,289078.15625,273385.28125,309260.0,277815.21875,681295.6875,204637.734375,204219.3125,222334.59375
884,289228.0,273409.15625,309265.09375,277772.375,681311.0625,204735.8125,204233.265625,222301.96875
885,289292.375,273865.3125,309540.65625,278107.9375,681558.4375,204888.4375,204552.453125,222632.859375
886,289310.53125,274227.3125,309826.125,278473.78125,681893.0,205003.140625,204873.0625,223016.234375
887,289189.21875,273920.28125,309659.84375,278304.53125,681732.6875,204851.15625,204694.515625,222882.84375
888,289066.90625,273448.84375,309334.3125,277914.09375,681403.625,204641.234375,204343.953125,222530.765625
889,289153.90625,273413.34375,309303.28125,277843.65625,681350.9375,204677.34375,204323.65625,222490.53125
890,289213.0,273711.34375,309439.25,277987.6875,681345.9375,204712.484375,204406.171875,222590.390625
891,289216.65625,273962.21875,309582.03125,278160.15625,681389.5625,204706.765625,204475.46875,222705.109375
892,289127.25,273599.75,309381.0625,277937.34375,681179.875,204530.984375,204201.796875,222447.171875
893,289023.625,273136.09375,309064.5625,277562.71875,680948.3125,204344.9375,203846.21875,222055.5625
894,288963.625,273010.84375,308915.78125,277389.375,680902.375,204275.546875,203729.8125,221888.109375
895,289025.25,273483.71875,309198.40625,277733.9375,681240.6875,204447.296875,204053.46875,222217.390625
896,289208.875,274052.4375,309640.875,278248.46875,681687.9375,204753.703125,204520.53125,222728.796875
897,289346.375,274043.9375,309740.65625,278335.46875,681770.5,204893.984375,204619.234375,222848.421875
898,289220.40625,273541.03125,309397.15625,277936.28125,681397.1875,204663.21875,204283.6875,222473.453125
899,289191.875,273343.15625,309219.21875,277719.90625,681275.9375,204524.375,204151.8125,222274.4375
900,289402.25,273924.5,309619.40625,278171.59375,681625.0,204808.859375,204588.5625,222715.75
901,289441.5,274316.09375,309915.53125,278541.90625,681951.0625,204939.125,204906.140625,223093.9375
902,289298.375,273945.75,309694.78125,278309.71875,681686.6875,204736.171875,204638.28125,222875.6875
903,289208.625,273468.59375,309372.65625,277925.4375,681321.8125,204543.59375,204261.15625,222503.765625
904,289248.40625,273365.875,309268.125,277779.09375,681267.1875,204529.921875,204145.109375,222366.25
905,289375.1875,273856.09375,309582.125,278144.3125,681525.125,204735.28125,204475.46875,222715.390625
906,289415.3125,274263.0625,309890.6875,278528.9375,681867.6875,204883.15625,204822.09375,223103.859375
907,289345.5,273996.1875,309763.0,278397.59375,681731.0,204761.296875,204694.953125,222988.078125
908,289264.5,273529.3125,309447.75,278018.875,681370.4375,204559.953125,204361.03125,222617.84375
909,289263.6875,273360.6875,309266.4375,277782.3125,681227.625,204466.890625,204168.796875,222374.125
910,289362.375,273801.1875,309511.59375,278060.1875,681390.625,204616.015625,204400.71875,222608.453125
911,289418.96875,274211.03125,309815.125,278426.65625,681665.125,204769.171875,204706.578125,222959.46875
912,289358.90625,273957.375,309702.84375,278302.5625,681522.125,204679.578125,204576.5,222848.78125
913,289282.5625,273500.96875,309397.25,277931.53125,681226.3125,204497.546875,204246.3125,222485.078125
914,289291.84375,273411.90625,309292.8125,277789.625,681212.8125,204480.5625,204182.125,222360.078125
915,289401.8125,273905.09375,309596.71875,278142.25,681480.9375,204680.203125,204531.078125,222702.953125
916,289443.03125,274300.25,309883.875,278494.0625,681782.125,204803.5,204847.125,223055.40625
917,289347.46875,273998.875,309711.59375,278307.21875,681569.125,204636.21875,204651.953125,222876.40625
918,289299.625,273562.84375,309429.6875,277961.46875,681271.875,204479.578125,204339.5625,222539.875
919,289352.28125,273478.25,309343.34375,277830.5,681260.0,204485.65625,204265.359375,222421.234375
920,289486.3125,273983.6875,309658.9375,278188.40625,681525.8125,204704.34375,204598.578125,222763.3125
921,289590.90625,274486.59375,310035.34375,278632.46875,681915.1875,204918.296875,204994.46875,223211.859375
922,289510.1875,274199.6875,309902.75,278496.3125,681763.0,204798.859375,204851.609375,223099.296875
923,289436.875,273717.34375,309589.90625,278124.1875,681401.25,204612.34375,204504.609375,222735.140625
924,289404.40625,273582.15625,309443.1875,277945.21875,681311.75,204565.765625,204374.796875,222572.6875
925,289503.21875,274069.0625,309742.09375,278291.125,681569.375,204759.609375,204700.0625,222918.609375
926,289578.5625,274450.90625,310036.15625,278644.625,681857.1875,204895.859375,204975.609375,223259.78125
927,289432.125,273992.25,309741.0,278311.59375,681490.9375,204600.09375,204589.8125,222903.3125
928,289318.9375,273429.4375,309339.03125,277833.09375,681095.5,204295.21875,204105.40625,222382.703125
929,289297.84375,273305.78125,309207.625,277680.28125,681039.25,204247.125,203991.6875,222219.71875
930,289329.40625,273735.9375,309443.03125,277965.78125,681269.25,204387.3125,204251.6875,222489.984375
931,289371.59375,274162.5625,309754.4375,278347.90625,681581.25,204543.421875,204588.03125,222870.234375
932,289384.5625,273992.96875,309716.78125,278298.09375,681506.0625,204519.453125,204533.484375,222830.265625
933,289441.0625,273683.0,309551.375,278071.625,681282.0,204482.171875,204346.0,222609.4375
934,289550.6875,273674.6875,309533.15625,278014.9375,681280.875,204559.515625,204355.390625,222567.421875
935,289639.46875,274126.1875,309801.4375,278330.28125,681476.4375,204727.859375,204644.71875,222865.140625
936,289694.8125,274541.84375,310105.71875,278694.875,681781.6875,204891.65625,204949.234375,223226.609375
937,289625.0625,274299.0,309996.625,278581.34375,681654.125,204801.53125,204822.984375,223135.59375
938,289548.625,273830.78125,309696.5,278222.8125,681326.1875,204586.234375,204506.9375,222800.234375
939,289554.0625,273689.15625,309555.03125,278038.1875,681248.9375,204540.015625,204372.5625,222621.5
940,289649.75,274174.375,309860.8125,278406.0,681531.8125,204747.4375,204712.390625,222977.796875
941,289668.25,274564.375,310147.71875,278767.65625,681851.25,204857.5,205030.953125,223351.15625
942,289576.53125,274244.90625,309976.25,278578.65625,681647.5,204698.453125,204831.75,223178.6875
943,289508.65625,273782.875,309672.875,278211.375,681300.0625,204518.46875,204492.984375,222814.8125
944,289530.21875,273613.34375,309497.65625,277978.03125,681169.875,204421.734375,204289.953125,222558.46875
945,289640.71875,274023.0,309713.75,278213.25,681305.5,204549.765625,204469.390625,222728.796875
946,289700.875,274438.125,310033.71875,278599.40625,681583.75,204724.203125,204805.921875,223101.890625
947,289646.0625,274224.96875,309962.375,278536.1875,681493.375,204669.125,204733.140625,223047.703125
948,289514.5625,273743.4375,309634.4375,278151.46875,681207.875,204475.828125,204397.421875,222683.734375
949,289538.25,273642.9375,309527.875,278009.5,681192.6875,204458.84375,204317.125,222559.453125
950,289609.40625,274092.21875,309785.8125,278314.90625,681413.5,204633.0,204607.25,222852.53125
951,289663.0625,274519.9375,310097.125,278694.15625,681746.0,204771.40625,204950.84375,223238.859375
952,289624.1875,274267.8125,309980.71875,278566.75,681599.5,204655.625,204823.53125,223126.75
953,289629.09375,273904.0,309769.96875,278294.78125,681299.375,204570.328125,204601.0,222869.875
954,289778.65625,273927.09375,309803.34375,278297.90625,681324.5,204697.546875,204675.203125,222895.984375
955,289902.40625,274398.15625,310097.03125,278632.46875,681561.9375,204900.0625,204989.46875,223222.859375
956,289923.5,274793.15625,310375.625,278976.4375,681863.3125,205021.03125,205282.09375,223580.21875
957,289833.75,274559.71875,310270.9375,278878.96875,681770.8125,204912.21875,205164.265625,223514.0625
958,289705.0,274053.9375,309919.46875,278465.75,681386.625,204668.140625,204764.515625,223116.90625
959,289677.5625,273827.21875,309694.4375,278179.0,681220.4375,204538.859375,204507.203125,222823.5625
960,289791.0,274231.40625,309925.90625,278445.875,681412.5625,204681.015625,204722.046875,223040.46875
961,289874.5,274711.96875,310303.375,278913.03125,681805.3125,204906.59375,205144.40625,223503.5
962,289788.78125,274391.1875,310132.34375,278727.96875,681590.3125,204744.046875,204940.734375,223314.5
963,289706.0625,273849.84375,309751.46875,278263.5,681177.375,204489.859375,204481.71875,222815.875
964,289724.125,273755.96875,309638.09375,278110.96875,681112.5,204489.953125,204375.78125,222652.359375
965,289795.46875,274242.0625,309927.875,278463.78125,681386.875,204685.578125,204713.46875,222992.015625
966,289884.0,274717.625,310303.75,278917.6875,681794.75,204907.03125,205134.578125,223461.75
967,289783.75,274445.09375,310165.34375,278773.75,681654.5625,204779.453125,204993.578125,223346.234375
968,289671.375,273943.09375,309820.21875,278365.78125,681282.8125,204564.875,204616.375,222951.6875
969,289655.28125,273773.46875,309650.8125,278151.65625,681183.8125,204483.421875,204449.1875,222750.703125
970,289802.625,274274.5,309963.53125,278504.1875,681444.75,204698.890625,204777.65625,223086.15625
971,289986.53125,274808.1875,310383.75,278981.53125,681843.5625,204966.125,205198.6875,223552.6875
972,290047.4375,274654.9375,310375.0,278954.96875,681776.3125,204966.484375,205151.109375,223532.5625
973,289922.875,274151.59375,310032.65625,278548.15625,681381.9375,204756.828125,204764.15625,223129.421875
974,289920.03125,274024.96875,309906.3125,278381.5,681309.8125,204725.265625,204642.203125,222976.71875
975,290065.125,274538.96875,310239.625,278768.46875,681592.5,204964.515625,204995.8125,223352.40625
976,290088.375,274931.65625,310507.40625,279106.96875,681866.9375,205075.828125,205263.671875,223682.859375
977,290030.53125,274675.15625,310384.03125,278977.59375,681694.25,204950.84375,205101.3125,223551.703125
978,289972.0625,274224.28125,310096.75,278631.40625,681350.125,204794.65625,204777.75,223198.546875
979,289944.875,273997.8125,309877.96875,278356.65625,681170.0,204675.203125,204550.921875,222911.0
980,290087.65625,274519.84375,310218.625,278748.625,681492.5,204919.015625,204930.90625,223280.4375
981,290185.125,275010.59375,310594.40625,279197.8125,681878.0,205148.703125,205335.03125,223726.046875
982,290090.96875,274678.46875,310399.5,278977.0625,681605.75,204970.25,205079.234375,223493.578125
983,290006.3125,274191.375,310063.15625,278567.46875,681254.5,204753.515625,204682.796875,223070.0625
984,290035.1875,274098.46875,309971.15625,278439.0,681222.75,204766.21875,204602.78125,222940.0625
985,290132.1875,274568.9375,310270.9375,278791.34375,681476.4375,204960.5,204950.21875,223281.0625
986,290150.0625,274973.9375,310562.9375,279154.875,681790.0,205091.5625,205284.328125,223648.34375
987,290053.0625,274692.21875,310412.375,278993.6875,681607.375,204949.5,205121.703125,223499.75
988,290076.40625,274343.4375,310213.0,278726.34375,681336.25,204887.546875,204896.578125,223239.9375
989,290144.0,274265.3125,310136.375,278604.75,681309.25,204907.484375,204829.875,223127.46875
990,290226.34375,274697.21875,310391.625,278902.5625,681514.8125,205064.390625,205097.734375,223410.53125
991,290261.46875,275102.34375,310682.46875,279259.75,681809.25,205203.5,205392.515625,223768.6875
992,290236.34375,274887.3125,310602.0,279171.4375,681688.875,205144.234375,205280.046875,223692.609375
993,290248.9375,274515.46875,310390.03125,278899.53125,681420.25,205055.453125,205038.28125,223433.765625
994,290194.84375,274297.3125,310175.71875,278642.125,681272.6875,204933.765625,204830.765625,223187.453125
995,290279.53125,274738.625,310438.21875,278957.375,681520.25,205106.40625,205129.03125,223491.265625
996,290334.34375,275178.5,310760.625,279354.25,681855.125,205275.484375,205479.5,223892.515625
997,290226.5,274858.53125,310573.3125,279151.3125,681623.25,205086.109375,205258.140625,223696.984375
998,290130.21875,274370.1875,310241.6875,278756.5625,681297.8125,204877.796875,204889.0625,223305.296875
999,290142.5625,274221.3125,310105.875,278576.40625,681241.625,204841.765625,204758.265625,223134.703125
1000,290253.59375,274672.09375,310383.84375,278895.78125,681476.4375,205010.484375,205056.171875,223437.796875
1001,290307.6875,275105.8125,310699.09375,279274.25,681788.9375,205170.96875,205389.828125,223817.0625
1002,290206.65625,274795.21875,310520.8125,279078.4375,681560.25,205016.5625,205169.359375,223622.78125
1003,290121.09375,274314.3125,310197.53125,278693.0,681247.9375,204804.21875,204802.25,223233.234375
1004,290141.21875,274196.1875,310088.96875,278549.96875,681225.125,204789.828125,204714.546875,223097.78125
1005,290231.5,274647.25,310357.46875,278863.59375,681462.625,204973.640625,205017.453125,223397.5625
1006,290285.34375,275092.6875,310687.125,279262.8125,681813.4375,205160.234375,205380.09375,223800.609375
1007,290260.9375,274894.65625,310620.40625,279187.4375,681720.25,205109.265625,205293.546875,223742.40625
1008,290217.375,274468.09375,310341.65625,278841.15625,681387.0625,204959.15625,204966.765625,223404.4375
1009,290193.875,274289.8125,310160.78125,278613.875,681267.375,204880.921875,204783.390625,223184.140625
1010,290271.3125,274713.5,310413.96875,278914.375,681479.25,205044.1875,205059.5625,223470.78125
1011,290291.15625,275130.125,310712.25,279284.0625,681794.6875,205197.34375,205384.734375,223849.875
1012,290251.8125,274927.625,310636.59375,279203.78125,681700.625,205121.96875,205293.09375,223791.578125
1013,290253.96875,274552.21875,310423.71875,278930.84375,681414.25,205037.296875,205048.296875,223528.90625
1014,290261.09375,274393.0625,310277.0,278739.78125,681319.0,204995.8125,204904.890625,223343.375
1015,290329.78125,274791.8125,310496.40625,278998.59375,681502.9375,205124.109375,205134.75,223582.28125
1016,290347.65625,275186.03125,310771.15625,279337.09375,681765.875,205250.0,205421.75,223919.34375
1017,290277.46875,274936.65625,310653.78125,279213.1875,681616.8125,205151.390625,205280.390625,223802.75
1018,290190.125,274444.21875,310324.40625,278815.3125,681292.625,204949.234375,204905.0625,223401.40625
1019,290180.46875,274256.375,310147.28125,278586.53125,681173.125,204880.21875,204720.890625,223163.765625
1020,290280.875,274691.59375,310406.28125,278887.46875,681377.125,205055.625,204989.921875,223434.3125
1021,290264.25,275038.0625,310637.125,279187.78125,681584.375,205128.40625,205225.953125,223721.125
1022,290180.375,274804.59375,310525.75,279081.46875,681452.75,205032.296875,205097.203125,223621.4375
1023,290044.375,274298.9375,310176.59375,278679.6875,681149.6875,204806.984375,204715.875,223222.953125
1024,290021.21875,274111.4375,309996.53125,278459.3125,681061.8125,204731.4375,204537.96875,223007.203125
1025,290218.625,274665.21875,310371.40625,278885.40625,681439.75,205021.03125,204949.6875,223423.671875
1026,290421.78125,275285.34375,310858.78125,279449.9375,681952.9375,205374.984375,205483.796875,224000.703125
1027,290319.59375,275022.5,310711.4375,279297.21875,681790.9375,205243.390625,205326.265625,223873.5625
1028,290224.71875,274522.875,310378.9375,278902.5625,681380.0625,205027.5625,204958.0,223486.4375
1029,290281.40625,274400.84375,310271.8125,278749.25,681289.5,205039.359375,204861.796875,223342.03125
1030,290416.5,274885.4375,310574.71875,279093.5625,681520.25,205279.234375,205194.125,223673.5625
1031,290430.34375,275284.53125,310858.875,279454.3125,681819.375,205406.375,205501.40625,224037.171875
1032,290355.15625,275032.3125,310736.125,279330.3125,681659.5,205292.46875,205347.8125,223921.21875
1033,290277.5625,274583.3125,310450.46875,278994.84375,681360.0,205123.40625,205038.28125,223603.109375
1034,290262.53125,274411.75,310297.46875,278809.0625,681298.75,205060.640625,204903.71875,223432.78125
1035,290323.15625,274771.71875,310486.65625,279033.75,681420.875,205157.375,205097.375,223632.4375
1036,290337.09375,275117.625,310711.53125,279310.71875,681605.75,205218.625,205313.5625,223889.125
1037,290256.71875,274842.875,310566.40625,279155.34375,681409.5,205090.3125,205132.96875,223724.609375
1038,290210.40625,274438.125,310310.09375,278843.21875,681211.8125,204975.703125,204853.75,223414.09375
1039,290202.09375,274288.8125,310155.6875,278647.0625,681171.5,204926.703125,204720.625,223230.546875
1040,290212.90625,274624.1875,310300.25,278825.78125,681298.4375,204979.71875,204871.984375,223383.703125
1041,290213.625,275040.28125,310587.15625,279199.21875,681610.875,205121.25,205202.96875,223759.296875
1042,290241.71875,274903.65625,310568.46875,279177.9375,681581.4375,205123.125,205171.328125,223755.640625
1043,290363.65625,274638.5,310455.09375,278999.40625,681391.25,205156.03125,205030.328125,223587.640625
1044,290353.09375,274445.8125,310276.90625,278770.34375,681264.5625,205083.171875,204871.1875,223370.921875
1045,290476.3125,274886.0625,310544.59375,279073.875,681493.8125,205262.34375,205160.5,223658.984375
1046,290628.65625,275412.84375,310949.09375,279538.875,681889.4375,205519.109375,205571.859375,224123.546875
1047,290523.25,275120.3125,310789.03125,279376.15625,681689.0,205377.5,205378.203125,223966.8125
1048,290381.625,274596.1875,310440.0,278981.34375,681328.6875,205132.34375,205000.734375,223586.296875
1049,290334.0625,274413.625,310269.125,278778.40625,681265.0,205066.625,204852.5,223412.3125
1050,290412.75,274814.8125,310495.0625,279052.6875,681447.875,205192.0625,205101.5,223670.96875
1051,290475.15625,275245.46875,310793.96875,279425.4375,681749.9375,205336.8125,205435.703125,224033.953125
1052,290388.78125,274975.1875,310644.28125,279276.03125,681562.0,205200.828125,205288.359375,223881.609375
1053,290325.9375,274562.40625,310382.40625,278958.09375,681263.25,205065.109375,205030.953125,223571.90625
1054,290328.15625,274411.03125,310233.90625,278762.9375,681192.75,205018.96875,204908.46875,223388.265625
1055,290421.6875,274868.28125,310509.375,279082.71875,681446.3125,205213.609375,205226.9375,223702.4375
1056,290452.53125,275286.4375,310807.625,279450.09375,681757.9375,205350.046875,205551.390625,224080.8125
1057,290360.4375,275043.25,310691.5,279336.375,681642.0625,205243.390625,205422.28125,223995.875
1058,290265.9375,274587.875,310392.0,278980.09375,681313.1875,205079.234375,205104.53125,223664.625
1059,290238.3125,274420.34375,310232.9375,278779.90625,681225.5625,205028.265625,204989.015625,223494.125
1060,290360.53125,274892.3125,310528.875,279117.15625,681488.875,205246.25,205348.4375,223839.046875
1061,290420.625,275356.15625,310862.8125,279517.53125,681866.75,205423.625,205732.171875,224260.25
1062,290377.15625,275153.125,310788.15625,279434.625,681794.875,205350.671875,205657.515625,224209.46875
1063,290297.0625,274695.09375,310482.5625,279063.15625,681420.3125,205162.375,205314.8125,223860.78125
1064,290250.75,274451.375,310263.5,278789.5625,681245.375,205049.453125,205089.421875,223609.8125
1065,290342.1875,274853.875,310497.75,279058.0625,681461.625,205201.1875,205333.328125,223869.8125
1066,290438.5,275317.96875,310856.53125,279486.125,681839.0,205386.703125,205711.515625,224308.4375
1067,290364.03125,275062.90625,310736.5625,279363.5625,681704.625,205266.71875,205572.765625,224205.890625
1068,290282.46875,274601.84375,310432.5,278997.4375,681346.3125,205085.9375,205238.28125,223856.9375
1069,290284.71875,274457.875,310289.15625,278811.75,681260.75,205063.5,205109.984375,223692.328125
1070,290385.28125,274903.84375,310565.875,279137.8125,681505.625,205262.25,205427.828125,224017.0625
1071,290412.46875,275288.5625,310848.5,279492.125,681814.625,205374.0,205733.875,224375.3125
1072,290341.75,275033.59375,310718.84375,279355.96875,681661.4375,205246.0625,205570.25,224249.609375
1073,290258.25,274569.8125,310406.125,278980.4375,681308.9375,205050.53125,205208.15625,223878.5625
1074,290220.78125,274356.15625,310209.0625,278740.65625,681192.625,204950.75,205007.890625,223646.828125
1075,290333.71875,274805.40625,310484.25,279059.03125,681438.375,205143.515625,205299.984375,223953.140625
1076,290391.03125,275265.6875,310814.25,279459.5,681784.5,205312.859375,205645.09375,224353.234375
1077,290352.21875,275067.65625,310742.8125,279385.8125,681699.6875,205245.171875,205549.6875,224293.859375
1078,290268.8125,274598.4375,310435.15625,279014.78125,681341.75,205070.828125,205202.078125,223933.28125
1079,290291.40625,274452.6875,310294.25,278824.53125,681257.0625,205015.390625,205056.515625,223744.453125
1080,290418.375,274891.5,310571.875,279143.875,681480.3125,205197.15625,205337.890625,224035.03125
1081,290434.90625,275290.625,310866.03125,279509.28125,681786.375,205335.5625,205642.234375,224401.875
1082,290329.59375,275035.90625,310734.6875,279373.21875,681647.6875,205209.3125,205490.421875,224287.15625
1083,290264.9375,274610.59375,310458.5,279039.0,681340.5,205054.109375,205187.59375,223965.203125
1084,290282.375,274491.25,310344.96875,278889.96875,681300.0625,205010.484375,205107.9375,223838.609375
1085,290369.5625,274887.5,310584.03125,279173.125,681503.125,205151.46875,205375.265625,224113.703125
1086,290398.25,275203.71875,310788.875,279415.78125,681649.1875,205191.53125,205545.046875,224325.78125
1087,290302.875,274904.21875,310612.71875,279224.34375,681400.625,205008.0625,205309.8125,224112.09375
1088,290189.9375,274440.71875,310306.96875,278872.96875,681174.25,204818.4375,204981.0625,223760.28125
1089,290138.0,274230.09375,310107.75,278629.09375,681081.1875,204713.015625,204794.65625,223534.796875
1090,290251.1875,274684.8125,310391.625,278957.90625,681351.8125,204909.71875,205104.265625,223855.765625
1091,290344.15625,275190.21875,310766.96875,279405.84375,681746.125,205132.34375,205506.78125,224310.234375
1092,290305.28125,275014.8125,310711.0625,279352.21875,681693.4375,205067.4375,205449.5625,224283.671875
1093,290266.84375,274582.34375,310438.65625,279016.9375,681342.375,204916.953125,205146.015625,223955.015625
1094,290271.21875,274410.40625,310276.84375,278806.8125,681220.6875,204857.6875,204985.890625,223746.15625
1095,290403.09375,274882.3125,310565.875,279131.28125,681481.75,205073.6875,205288.4375,224055.15625
1096,290479.8125,275357.40625,310919.40625,279553.09375,681850.1875,205270.46875,205643.75,224477.6875
1097,290389.9375,275125.84375,310818.8125,279456.09375,681749.1875,205158.0,205509.734375,224400.265625
1098,290284.71875,274682.9375,310539.78125,279133.15625,681432.6875,205000.640625,205205.921875,224104.40625
1099,290280.34375,274534.59375,310402.71875,278958.09375,681326.0,204966.3125,205091.65625,223963.234375
1100,290390.9375,274956.78125,310673.96875,279277.625,681584.8125,205145.578125,205405.75,224285.28125
1101,290416.5,275287.84375,310880.25,279528.78125,681757.1875,205181.0625,205596.71875,224505.578125
1102,290301.96875,274913.78125,310631.59375,279245.625,681403.3125,204951.5625,205281.734375,224186.21875
1103,290253.59375,274471.84375,310343.625,278897.03125,681145.5625,204808.234375,204963.890625,223811.609375
1104,290239.21875,274341.125,310221.75,278752.375,681130.3125,204784.09375,204891.828125,223675.078125
1105,290283.09375,274726.09375,310436.96875,279018.4375,681328.875,204913.65625,205151.109375,223927.5625
1106,290237.40625,275086.78125,310669.6875,279328.6875,681582.9375,205000.90625,205422.28125,224237.625
1107,290112.78125,274833.125,310537.0,279202.90625,681461.6875,204878.609375,205287.734375,224134.453125
1108,290118.875,274477.90625,310340.21875,278952.28125,681228.5625,204782.40625,205061.53125,223910.578125
1109,290216.75,274396.28125,310277.1875,278835.96875,681229.5,204808.78125,204999.390625,223818.578125
1110,290392.4375,274890.0,310604.59375,279191.09375,681535.0,205062.875,205342.984375,224169.328125
1111,290628.5625,275530.3125,311120.75,279773.125,682084.875,205431.671875,205880.671875,224763.15625
1112,290489.625,275221.78125,310942.65625,279589.9375,681900.8125,205264.390625,205673.875,224602.859375
1113,290338.8125,274635.8125,310529.125,279104.5625,681391.875,204981.6875,205192.953125,224116.390625
1114,290292.3125,274407.0,310308.125,278835.625,681214.9375,204872.609375,204970.609375,223852.828125
1115,290354.0,274804.96875,310529.5,279104.0,681421.6875,205013.78125,205224.78125,224109.59375
1116,290386.53125,275253.6875,310845.375,279500.53125,681767.75,205167.65625,205583.578125,224508.171875
1117,290314.5625,275029.65625,310744.96875,279410.0625,681663.625,205066.890625,205480.765625,224426.8125
1118,290259.15625,274581.0,310460.90625,279069.59375,681331.375,204924.109375,205169.171875,224086.359375
1119,290231.25,274384.5625,310280.0625,278842.84375,681230.25,204849.1875,205006.0,223872.125
1120,290319.40625,274781.375,310494.625,279081.03125,681400.625,204996.0,205227.296875,224089.296875
1121,290366.25,275232.40625,310808.96875,279460.21875,681717.75,205180.171875,205548.34375,224461.234375
1122,290309.5625,275030.4375,310730.9375,279384.65625,681642.5,205073.515625,205453.484375,224401.328125
1123,290241.15625,274563.5625,310435.625,279025.34375,681326.6875,204898.625,205132.078125,224053.8125
1124,290224.28125,274352.46875,310246.59375,278783.3125,681228.4375,204817.1875,204954.421875,223821.703125
1125,290314.3125,274753.5625,310482.5625,279049.125,681435.6875,204971.5,205209.859375,224073.828125
1126,290345.40625,275181.0,310778.125,279407.375,681736.0,205108.734375,205523.046875,224427.796875
1127,290249.3125,274929.25,310648.03125,279276.125,681598.625,204986.515625,205388.046875,224309.328125
1128,290193.4375,274469.96875,310356.03125,278923.0625,681289.8125,204820.75,205066.71875,223956.984375
1129,290224.4375,274330.9375,310227.21875,278747.8125,681243.3125,204796.53125,204949.5,223783.265625
1130,290359.28125,274792.28125,310499.28125,279045.625,681479.3125,204992.5,205235.0625,224061.3125
1131,290428.21875,275274.96875,310854.40625,279466.28125,681860.8125,205176.15625,205613.265625,224487.875
1132,290340.875,275019.1875,310728.4375,279336.90625,681721.375,205045.609375,205451.796875,224368.25
1133,290243.9375,274524.40625,310408.625,278964.625,681350.375,204860.984375,205082.453125,223991.40625
1134,290219.09375,274304.65625,310223.71875,278726.53125,681247.5625,204773.375,204894.515625,223767.96875
1135,290314.21875,274696.875,310455.71875,278982.34375,681436.9375,204918.921875,205131.625,224009.46875
1136,290361.6875,275134.25,310760.78125,279351.3125,681728.3125,205073.6875,205442.578125,224363.0625
1137,290291.15625,274902.25,310648.21875,279232.65625,681580.1875,204963.71875,205292.28125,224240.125
1138,290213.8125,274447.15625,310356.125,278878.625,681281.3125,204793.578125,204949.328125,223882.59375
1139,290209.875,274265.84375,310197.875,278675.40625,681221.125,204730.453125,204785.171875,223685.0
1140,290318.15625,274673.71875,310440.625,278952.75,681423.625,204892.734375,205028.09375,223935.703125
1141,290349.96875,275089.0,310718.5,279285.40625,681667.1875,205027.109375,205281.375,224239.953125
1142,290239.28125,274832.59375,310580.53125,279132.34375,681488.4375,204896.03125,205100.421875,224084.65625
1143,290132.1875,274333.875,310259.5625,278754.4375,681203.25,204670.015625,204749.5,223707.890625
1144,290098.46875,274095.0625,310047.84375,278497.375,681083.1875,204557.28125,204535.8125,223447.53125
1145,290184.5,274495.34375,310281.21875,278779.1875,681327.9375,204723.84375,204791.4375,223708.875
1146,290242.875,274979.3125,310618.28125,279192.34375,681673.625,204919.8125,205157.640625,224116.75
1147,290290.53125,274883.65625,310637.75,279209.5,681672.6875,204952.984375,205159.609375,224138.5625
1148,290336.9375,274554.625,310470.03125,278978.3125,681428.625,204926.4375,204958.796875,223909.953125
1149,290251.625,274297.75,310231.84375,278695.40625,681246.875,204810.46875,204734.203125,223636.8125
1150,290341.65625,274704.5625,310466.625,278972.5,681447.4375,204952.0,204987.765625,223902.4375
1151,290409.625,275175.75,310802.4375,279382.4375,681777.0625,205128.140625,205322.78125,224299.59375
1152,290321.71875,274940.875,310697.40625,279272.8125,681646.1875,205022.734375,205176.59375,224199.71875
1153,290205.6875,274425.4375,310364.8125,278879.5,681309.0,204815.578125,204783.109375,223804.546875
1154,290173.5,274216.03125,310175.4375,278646.15625,681217.8125,204755.671875,204587.671875,223576.46875
1155,290252.0,274622.75,310412.8125,278922.96875,681440.4375,204932.421875,204849.546875,223843.34375
1156,290307.0625,275038.0625,310709.75,279279.78125,681709.125,205048.75,205137.796875,224178.0
1157,290261.375,274802.5625,310598.6875,279153.09375,681543.0625,204944.3125,204967.921875,224038.078125
1158,290166.25,274296.5,310255.09375,278736.28125,681194.9375,204736.453125,204550.390625,223602.390625
1159,290119.21875,274043.65625,310018.34375,278449.0,681017.8125,204631.484375,204298.53125,223299.84375
1160,290195.65625,274427.9375,310229.96875,278701.21875,681223.1875,204789.375,204533.21875,223522.1875
1161,290133.15625,274796.65625,310457.25,279009.34375,681451.625,204866.796875,204800.640625,223827.78125
1162,290036.34375,274598.625,310359.53125,278920.8125,681362.5,204790.625,204703.8125,223752.234375
1163,290026.6875,274215.9375,310137.4375,278645.4375,681203.9375,204709.265625,204455.890625,223485.359375
1164,290189.40625,274218.90625,310156.21875,278621.75,681271.0,204854.015625,204504.96875,223486.703125
1165,290257.8125,274617.46875,310379.75,278882.625,681434.0625,205013.25,204774.71875,223751.609375
1166,290304.28125,275063.53125,310694.0,279269.9375,681770.625,205171.328125,205111.859375,224142.671875
1167,290407.03125,275024.71875,310773.75,279347.75,681830.6875,205259.5625,205163.453125,224237.71875
1168,290278.8125,274511.1875,310425.875,278936.65625,681421.8125,205049.1875,204762.90625,223839.59375
1169,290198.875,274214.53125,310155.875,278606.8125,681190.4375,204922.40625,204464.46875,223510.65625
1170,290273.625,274623.28125,310387.4375,278881.5625,681403.75,205110.609375,204723.75,223772.984375
