Unnamed: 0,EEG 1,EEG 2,EEG 3,EEG 4,EEG 5,EEG 6,EEG 7,EEG 8
0,289278.78125,273455.1875,309510.0625,277718.125,681699.4375,204847.578125,203783.8125,223674.453125
1,289399.125,274024.4375,309886.21875,278166.03125,682049.0,205101.9375,204211.625,224122.375
2,289440.875,274338.875,310127.4375,278463.6875,682274.625,205207.078125,204469.828125,224427.0
3,289339.40625,273904.90625,309876.8125,278179.0,681969.125,204998.046875,204171.9375,224140.359375
4,289249.8125,273386.25,309497.125,277718.90625,681593.75,204747.171875,203716.3125,223644.6875
5,289275.5,273398.9375,309464.3125,277676.90625,681632.6875,204782.40625,203715.328125,223593.359375
6,289330.90625,273920.0,309783.03125,278066.625,681944.0,204979.28125,204090.484375,223982.734375
7,289266.09375,274150.96875,309949.25,278296.125,682124.125,205018.34375,204297.546875,224241.296875
8,289154.0625,273777.21875,309735.5625,278061.53125,681890.4375,204840.609375,204061.78125,224031.8125
9,289165.5,273435.875,309537.0,277805.8125,681745.5625,204765.953125,203836.390625,223792.203125
10,289505.875,273743.875,309802.34375,278051.34375,681957.125,205106.859375,204121.0625,224056.84375
11,289618.0,274306.4375,310148.8125,278452.5,682247.5,205332.609375,204493.796875,224467.3125
12,289524.3125,274471.46875,310252.78125,278613.34375,682356.6875,205287.734375,204611.28125,224647.375
13,289432.3125,274100.875,310062.15625,278399.40625,682109.9375,205126.4375,204397.6875,224457.03125
14,289374.90625,273673.34375,309786.875,278066.8125,681814.8125,204987.671875,204094.765625,224135.703125
15,289349.4375,273615.0625,309693.8125,277964.15625,681786.0,204973.828125,204023.0625,224047.90625
16,289434.53125,274138.15625,310023.28125,278364.78125,682086.0625,205170.34375,204382.578125,224453.640625
17,289464.40625,274474.34375,310281.75,278683.625,682373.6875,205272.171875,204659.5625,224798.5625
18,289364.28125,274084.15625,310060.90625,278434.4375,682118.3125,205087.453125,204403.9375,224567.359375
19,289266.375,273537.34375,309668.59375,277958.96875,681717.0,204816.828125,203936.96875,224067.671875
20,289303.46875,273482.1875,309575.0625,277831.03125,681653.25,204801.265625,203822.796875,223910.40625
21,289397.53125,274002.53125,309910.625,278234.15625,681953.375,205029.171875,204192.21875,224298.515625
22,289375.09375,274272.375,310111.5,278498.8125,682147.625,205087.453125,204423.34375,224573.984375
23,289269.84375,273940.03125,309932.0,278304.96875,681944.875,204966.671875,204248.375,224410.265625
24,289203.25,273537.1875,309657.59375,277968.1875,681719.1875,204831.484375,203968.265625,224095.296875
25,289237.75,273524.84375,309607.15625,277891.46875,681748.8125,204865.640625,203946.890625,224035.921875
26,289348.4375,274076.9375,309959.34375,278307.46875,682079.3125,205096.125,204348.234375,224460.15625
27,289382.5,274421.40625,310230.875,278639.90625,682399.625,205224.34375,204668.5,224833.34375
28,289392.15625,274151.40625,310129.40625,278513.46875,682261.3125,205172.3125,204551.46875,224738.671875
29,289348.25,273711.0625,309823.625,278131.8125,681889.0625,205011.1875,204198.9375,224366.109375
30,289412.625,273703.65625,309779.46875,278057.78125,681843.375,205059.921875,204149.9375,224296.28125
31,289510.8125,274206.125,310091.40625,278431.59375,682082.625,205255.453125,204477.875,224658.5625
32,289478.71875,274479.34375,310293.46875,278708.21875,682322.0,205310.53125,204722.5,224960.9375
33,289353.90625,274095.78125,310067.0,278467.34375,682070.5,205128.671875,204489.328125,224746.0
34,289281.5625,273665.28125,309769.8125,278112.125,681799.125,204964.796875,204181.5,224404.546875
35,289298.65625,273616.65625,309690.0625,278004.21875,681799.5625,204952.625,204127.21875,224308.625
36,289405.3125,274159.4375,310032.75,278408.15625,682118.125,205186.25,204514.0,224713.359375
37,289423.0,274462.34375,310262.78125,278693.28125,682367.75,205285.859375,204769.34375,225019.9375
38,289352.8125,274124.65625,310094.53125,278504.0,682174.3125,205161.75,204586.234375,224857.21875
39,289258.0625,273632.21875,309747.4375,278083.53125,681824.1875,204950.3125,204191.78125,224436.015625
40,289283.34375,273563.90625,309642.3125,277941.28125,681768.75,204929.296875,204072.59375,224278.21875
41,289384.65625,274059.3125,309944.15625,278294.6875,682001.75,205118.578125,204381.953125,224597.578125
42,289402.53125,274386.4375,310194.75,278605.375,682265.8125,205232.5625,204669.03125,224918.734375
43,289300.875,274009.4375,309979.8125,278363.1875,682007.75,205054.5625,204429.6875,224684.125
44,289190.375,273532.15625,309644.28125,277963.96875,681715.875,204845.609375,204062.234375,224282.875
45,289213.96875,273498.28125,309581.34375,277879.03125,681726.25,204866.265625,204019.21875,224199.8125
46,289313.3125,274034.0,309923.59375,278286.375,682050.125,205090.046875,204404.203125,224603.75
47,289340.5625,274350.5,310170.15625,278592.0625,682323.75,205188.484375,204678.59375,224926.953125
48,289310.71875,274053.6875,310037.21875,278438.46875,682155.0625,205093.984375,204522.578125,224788.203125
49,289260.65625,273646.25,309762.75,278096.3125,681860.375,204961.390625,204214.9375,224456.046875
50,289287.5625,273603.34375,309690.125,277991.875,681826.9375,204958.53125,204147.515625,224355.015625
51,289459.84375,274183.84375,310082.09375,278435.96875,682165.25,205232.03125,204560.671875,224791.234375
52,289448.65625,274463.96875,310285.0625,278696.21875,682387.875,205301.59375,204777.65625,225066.515625
53,289349.0625,274104.8125,310079.0625,278470.03125,682137.75,205141.28125,204537.609375,224854.0
54,289264.3125,273672.0,309777.03125,278115.0,681834.125,204973.640625,204209.65625,224500.390625
55,289246.6875,273590.625,309674.5,277996.78125,681810.0625,204936.71875,204136.25,224386.40625
56,289365.0625,274143.1875,310027.03125,278407.1875,682142.3125,205173.828125,204540.375,224801.515625
57,289384.125,274407.09375,310214.15625,278638.5625,682316.4375,205219.0625,204730.453125,225025.578125
58,289292.03125,274018.625,309996.71875,278394.84375,682041.0,205037.921875,204477.34375,224773.71875
59,289215.84375,273545.40625,309665.03125,277989.90625,681724.6875,204831.75,204090.5625,224347.15625
60,289211.375,273451.15625,309553.4375,277848.125,681678.875,204777.578125,203984.171875,224192.484375
61,289315.0,273949.0625,309867.25,278217.1875,681937.0625,204968.71875,204308.71875,224527.671875
62,289324.9375,274291.3125,310127.6875,278541.90625,682218.0,205107.3125,204601.53125,224868.3125
63,289164.625,273857.6875,309857.59375,278253.84375,681903.75,204888.96875,204302.375,224584.890625
64,289114.5625,273465.65625,309596.0,277938.9375,681701.25,204774.09375,204031.46875,224275.625
65,289085.5,273381.0625,309470.1875,277786.78125,681684.4375,204742.078125,203947.078125,224127.75
66,289160.78125,273871.375,309759.34375,278134.21875,681953.0,204899.609375,204282.890625,224458.46875
67,289265.46875,274288.71875,310086.75,278521.875,682293.1875,205092.109375,204642.296875,224850.953125
68,289368.65625,274150.15625,310105.71875,278523.125,682277.5625,205162.109375,204648.640625,224871.25
69,289330.125,273742.90625,309848.75,278200.5625,681964.75,205051.875,204366.03125,224568.53125
70,289246.0625,273568.125,309662.78125,277988.46875,681835.625,204941.359375,204193.5625,224365.65625
71,289329.125,274053.21875,309955.59375,278336.53125,682089.25,205106.40625,204499.34375,224701.921875
72,289319.65625,274347.375,310159.78125,278596.625,682300.0,205170.34375,204707.484375,224965.484375
73,289209.78125,273986.4375,309966.125,278386.875,682079.9375,205017.265625,204505.59375,224778.09375
74,289146.75,273537.34375,309663.84375,278020.5625,681768.375,204852.5,204175.5,224411.078125
75,289166.40625,273447.21875,309559.96875,277885.46875,681728.25,204841.5,204078.234375,224262.578125
76,289258.84375,273926.8125,309851.96875,278228.625,681970.4375,205012.09375,204390.265625,224583.453125
77,289262.15625,274183.59375,310035.34375,278452.5,682107.6875,205063.9375,204556.109375,224791.234375
78,289159.875,273870.9375,309873.34375,278281.1875,681933.8125,204945.03125,204385.96875,224636.296875
79,289035.4375,273390.09375,309532.25,277882.09375,681665.8125,204731.078125,204018.6875,224243.796875
80,289030.34375,273289.4375,309402.96875,277719.8125,681610.3125,204678.78125,203884.390625,224074.734375
81,289131.71875,273816.5625,309727.34375,278104.96875,681911.1875,204887.984375,204238.71875,224445.140625
82,289205.46875,274202.28125,310029.0,278465.75,682227.75,205054.5625,204576.234375,224820.65625
83,289246.78125,274014.6875,309987.96875,278410.46875,682157.1875,205042.9375,204530.71875,224783.71875
84,289152.375,273528.6875,309663.6875,278018.25,681834.4375,204849.359375,204190.171875,224411.34375
85,289119.5625,273389.375,309505.59375,277814.3125,681747.3125,204766.84375,204032.015625,224212.5
86,289233.1875,273895.96875,309816.46875,278170.875,682002.8125,204970.953125,204348.0625,224547.328125
87,289299.1875,274269.15625,310108.75,278524.125,682304.8125,205128.140625,204650.890625,224909.796875
88,289204.5,273955.59375,309947.4375,278355.75,682124.9375,205001.984375,204478.15625,224767.359375
89,289125.90625,273541.375,309671.46875,278032.28125,681859.6875,204855.0,204199.28125,224467.21875
90,289117.78125,273456.875,309561.65625,277900.6875,681831.875,204815.390625,204123.5625,224342.953125
91,289186.53125,273899.1875,309808.78125,278192.875,682012.0,204932.78125,204393.390625,224613.40625
92,289189.46875,274135.5,309979.5625,278409.0625,682145.3125,204957.28125,204563.171875,224814.125
93,289116.53125,273798.15625,309794.84375,278198.59375,681924.875,204819.328125,204345.5625,224605.453125
94,289039.53125,273313.125,309441.0625,277761.03125,681590.625,204620.84375,203908.984375,224140.0
95,289050.8125,273233.0,309342.4375,277630.9375,681548.0625,204612.796875,203796.59375,223988.265625
96,289144.40625,273779.65625,309696.9375,278052.40625,681903.0,204851.328125,204193.5625,224399.640625
97,289133.59375,274107.9375,309932.53125,278351.375,682158.3125,204951.828125,204467.421875,224714.890625
98,289004.6875,273762.9375,309717.6875,278120.34375,681919.9375,204785.625,204247.921875,224504.234375
99,288898.625,273251.78125,309381.96875,277727.59375,681625.3125,204579.984375,203906.296875,224122.46875
100,288888.625,273143.6875,309251.40625,277562.28125,681599.125,204532.515625,203797.046875,223952.78125
101,289056.34375,273737.34375,309636.84375,277999.75,681978.375,204812.53125,204214.75,224375.21875
102,289204.75,274207.5625,310013.4375,278429.34375,682363.5625,205064.84375,204615.125,224822.078125
103,289143.0625,273889.71875,309853.40625,278245.875,682158.0,204947.984375,204425.21875,224655.421875
104,289083.09375,273438.1875,309564.78125,277895.6875,681814.1875,204780.96875,204100.5,224310.578125
105,289034.1875,273302.40625,309401.90625,277698.1875,681726.25,204710.703125,203937.59375,224114.875
106,289090.59375,273773.9375,309672.53125,278023.4375,681970.0625,204879.765625,204228.078125,224424.046875
107,289100.6875,274102.21875,309914.1875,278329.65625,682230.25,204992.859375,204505.328125,224744.484375
108,289019.6875,273763.09375,309728.21875,278126.25,682006.75,204833.90625,204300.671875,224550.828125
109,288988.9375,273341.8125,309461.09375,277797.40625,681742.125,204692.640625,204006.53125,224217.78125
110,288983.3125,273255.0,309346.46875,277648.375,681706.3125,204679.140625,203910.328125,224067.390625
111,289071.8125,273761.3125,309656.78125,278016.90625,681986.8125,204875.296875,204251.953125,224424.3125
112,289094.875,274089.96875,309908.75,278333.0625,682261.75,204980.796875,204525.0,224755.109375
113,288975.25,273723.40625,309689.78125,278092.90625,682007.4375,204791.96875,204272.421875,224528.921875
114,288904.0,273272.625,309378.46875,277714.53125,681712.5625,204613.25,203917.5625,224143.84375
115,288906.9375,273171.6875,309260.28125,277564.25,681668.6875,204574.625,203810.1875,223982.28125
116,288976.40625,273662.625,309563.28125,277928.65625,681945.875,204758.890625,204154.5,224327.84375
117,288990.90625,274001.90625,309815.84375,278242.40625,682224.5625,204871.71875,204443.09375,224656.328125
118,288937.78125,273700.4375,309667.875,278074.75,682041.5,204759.421875,204273.40625,224503.609375
119,288876.5625,273266.8125,309374.25,277719.28125,681728.75,204607.25,203942.59375,224146.34375
120,288933.3125,273246.96875,309320.09375,277636.21875,681720.0,204641.5,203894.140625,224057.5625
121,289033.625,273779.375,309643.375,278013.15625,681998.625,204856.703125,204241.40625,224420.734375
122,289102.46875,274163.28125,309957.90625,278394.9375,682365.8125,205017.90625,204593.84375,224827.09375
123,289056.15625,273865.65625,309821.84375,278238.90625,682199.5,204918.125,204433.453125,224690.03125
124,288931.96875,273363.90625,309467.4375,277819.40625,681821.75,204686.734375,204043.90625,224280.0
125,288931.4375,273281.1875,309360.75,277681.0,681782.0625,204676.359375,203944.390625,224150.71875
126,289012.28125,273779.125,309669.40625,278054.0,682074.4375,204877.265625,204292.625,224521.046875
127,289010.21875,274074.6875,309891.46875,278335.46875,682324.25,204951.375,204539.75,224817.96875
128,288894.78125,273657.59375,309638.8125,278048.5625,682027.6875,204723.296875,204240.859375,224530.53125
129,288798.3125,273094.78125,309236.03125,277562.375,681625.75,204458.296875,203758.15625,224003.5625
130,288832.125,273057.0625,309168.90625,277465.53125,681617.625,204476.265625,203705.21875,223894.578125
131,288958.625,273640.625,309547.1875,277903.375,681970.875,204743.15625,204128.296875,224323.640625
132,288983.3125,274012.09375,309828.90625,278256.0625,682288.625,204884.859375,204448.28125,224689.578125
133,288856.875,273647.25,309627.90625,278039.71875,682077.1875,204726.703125,204241.671875,224501.46875
134,288761.75,273157.375,309277.625,277612.6875,681709.75,204499.96875,203849.625,224076.703125
135,288778.46875,273058.59375,309145.03125,277432.625,681622.625,204444.359375,203695.390625,223873.734375
136,288901.9375,273602.53125,309501.59375,277852.9375,681952.3125,204696.03125,204084.484375,224267.9375
137,288959.0625,274006.375,309810.40625,278230.15625,682279.5,204869.9375,204427.28125,224648.28125
138,288940.375,273761.9375,309706.15625,278099.0,682142.75,204816.546875,204312.5625,224540.984375
139,288830.96875,273271.375,309380.875,277720.34375,681807.75,204637.109375,203971.21875,224169.671875
140,288845.25,273178.46875,309277.875,277586.0625,681785.25,204608.5,203883.765625,224045.9375
141,288968.1875,273713.3125,309618.875,277980.96875,682095.8125,204832.640625,204249.09375,224432.0
142,289009.0625,274061.8125,309891.46875,278319.09375,682400.6875,204944.140625,204540.640625,224784.171875
143,288884.78125,273659.40625,309653.03125,278056.6875,682117.0,204733.765625,204260.4375,224533.125
144,288763.71875,273119.71875,309266.71875,277600.71875,681715.625,204480.390625,203815.203125,224062.03125
145,288749.78125,273017.90625,309142.53125,277448.8125,681667.6875,204444.265625,203701.921875,223902.890625
146,288868.875,273551.125,309476.09375,277843.1875,681966.4375,204675.296875,204071.796875,224278.3125
147,288887.0,273910.71875,309740.125,278177.3125,682254.875,204800.46875,204380.421875,224623.0625
148,288764.875,273547.71875,309530.8125,277960.125,682020.4375,204620.75,204172.015625,224420.203125
149,288700.34375,273110.0,309235.15625,277604.125,681724.75,204456.328125,203854.453125,224064.265625
150,288685.40625,273000.03125,309104.875,277441.84375,681681.8125,204409.578125,203736.515625,223899.765625
151,288815.65625,273541.8125,309444.28125,277830.3125,681984.6875,204645.34375,204097.359375,224273.390625
152,288885.40625,273936.375,309751.21875,278199.75,682315.125,204817.890625,204430.140625,224655.515625
153,288865.65625,273682.90625,309646.25,278077.71875,682174.8125,204746.8125,204304.875,224548.859375
154,288789.75,273237.03125,309351.1875,277722.75,681833.125,204594.921875,203989.546875,224202.40625
155,288753.53125,273081.75,309186.78125,277523.125,681723.4375,204503.0,203829.5,224000.34375
156,288833.28125,273552.1875,309470.375,277860.375,681976.6875,204672.78125,204138.3125,224323.015625
157,288863.15625,273916.71875,309745.21875,278197.25,682283.25,204795.0,204437.203125,224671.609375
158,288817.53125,273652.34375,309639.96875,278086.65625,682165.375,204721.96875,204316.765625,224578.984375
159,288759.25,273251.96875,309379.53125,277775.0625,681894.1875,204609.046875,204033.796875,224282.25
160,288721.34375,273076.8125,309188.125,277533.21875,681780.0,204516.0625,203818.765625,224040.75
161,288778.75,273431.75,309373.625,277746.71875,681882.3125,204568.1875,203965.21875,224205.625
162,288797.25,273730.5625,309581.6875,278000.1875,682027.1875,204644.453125,204146.453125,224429.671875
163,288711.5,273447.3125,309436.9375,277850.875,681852.875,204546.1875,203992.40625,224280.8125
164,288640.0625,273017.28125,309157.53125,277522.84375,681645.375,204380.609375,203706.921875,223955.640625
165,288650.8125,272923.65625,309051.59375,277380.4375,681624.6875,204363.703125,203616.890625,223810.53125
166,288741.1875,273416.9375,309356.375,277740.90625,681905.6875,204573.015625,203959.046875,224154.125
167,288757.625,273776.25,309617.375,278068.40625,682194.3125,204702.109375,204255.078125,224494.578125
168,288653.9375,273451.53125,309434.53125,277871.34375,681993.25,204550.390625,204056.328125,224314.875
169,288563.28125,272989.75,309113.90625,277489.78125,681693.0,204365.40625,203705.84375,223935.609375
170,288598.21875,272915.53125,309028.0,277369.59375,681685.6875,204359.59375,203630.296875,223815.0
171,288742.25,273452.78125,309377.03125,277768.625,681987.1875,204602.421875,203999.109375,224193.1875
172,288821.9375,273869.9375,309690.59375,278139.5,682317.9375,204785.890625,204332.5,224572.8125
173,288690.21875,273502.75,309482.53125,277918.84375,682080.5,204615.203125,204106.578125,224368.78125
174,288659.75,273114.28125,309236.21875,277614.125,681790.3125,204495.578125,203831.921875,224073.921875
175,288691.9375,273049.28125,309168.375,277521.78125,681783.5625,204515.4375,203788.640625,223992.390625
176,288751.28125,273500.4375,309437.21875,277845.875,682020.9375,204672.15625,204081.1875,224307.640625
177,288723.125,273814.15625,309662.0625,278133.3125,682290.5,204753.4375,204325.4375,224615.015625
178,288628.0,273480.84375,309481.8125,277936.8125,682093.9375,204602.609375,204114.359375,224439.328125
179,288537.4375,272966.75,309125.0,277508.1875,681735.3125,204371.3125,203693.15625,224003.734375
180,288526.78125,272781.15625,308932.5,277265.71875,681608.5,204262.40625,203455.59375,223727.03125
181,288635.5,273220.5,309191.875,277565.0625,681823.5625,204413.859375,203681.71875,223960.109375
182,288647.40625,273570.53125,309448.5625,277888.0,682054.375,204531.171875,203950.296875,224269.90625
183,288507.21875,273197.6875,309219.9375,277640.0625,681796.875,204338.859375,203692.265625,224019.75
184,288425.125,272775.53125,308933.21875,277300.59375,681610.75,204189.453125,203383.09375,223672.75
185,288447.84375,272722.6875,308859.0,277200.8125,681628.375,204209.296875,203331.140625,223573.609375
186,288574.53125,273254.65625,309192.21875,277590.875,681931.625,204429.78125,203692.890625,223946.078125
187,288638.90625,273663.15625,309501.40625,277962.71875,682263.0,204597.0625,204032.09375,224327.921875
188,288577.84375,273390.28125,309371.03125,277817.8125,682106.0,204502.828125,203893.96875,224203.75
189,288459.65625,272893.71875,309028.53125,277418.59375,681742.8125,204292.1875,203535.171875,223812.59375
190,288439.96875,272749.0625,308871.4375,277223.34375,681660.1875,204214.578125,203378.078125,223610.171875
191,288577.03125,273277.4375,309213.5,277622.4375,681967.5,204446.859375,203741.34375,223989.4375
192,288708.375,273744.40625,309580.96875,278039.71875,682350.625,204681.109375,204132.234375,224429.765625
193,288645.875,273483.875,309455.71875,277903.8125,682200.9375,204593.21875,203989.0,224313.453125
194,288522.84375,273027.46875,309138.40625,277533.9375,681850.8125,204413.328125,203652.203125,223961.625
195,288498.375,272880.65625,309007.15625,277374.96875,681768.3125,204348.421875,203547.59375,223817.765625
196,288582.84375,273306.5,309254.90625,277664.1875,681958.375,204481.015625,203801.421875,224084.5625
197,288579.0,273575.1875,309431.03125,277884.84375,682110.125,204515.4375,203960.390625,224291.0
198,288482.53125,273256.25,309258.5625,277693.71875,681897.0625,204379.265625,203756.8125,224104.234375
199,288376.15625,272786.78125,308931.6875,277299.25,681599.375,204194.90625,203396.59375,223708.25
200,288363.28125,272597.6875,308732.9375,277045.5,681451.8125,204094.0625,203170.484375,223423.671875
201,288471.28125,273111.78125,309053.90625,277424.0625,681771.875,204324.015625,203518.71875,223772.171875
202,288509.28125,273540.46875,309382.21875,277834.96875,682150.0625,204527.046875,203920.421875,224206.15625
203,288445.875,273278.53125,309250.78125,277691.125,682008.625,204428.265625,203794.90625,224089.484375
204,288371.125,272842.65625,308956.8125,277338.75,681699.8125,204281.1875,203486.359375,223751.609375
205,288359.34375,272714.0,308818.34375,277167.71875,681644.1875,204238.890625,203364.765625,223585.3125
206,288423.09375,273172.40625,309082.09375,277486.0,681884.3125,204385.171875,203660.25,223891.890625
207,288434.0625,273492.65625,309306.59375,277769.0,682121.0625,204457.40625,203900.40625,224181.84375
208,288316.59375,273150.03125,309116.5,277562.0,681897.9375,204298.34375,203686.890625,223989.53125
209,288372.03125,272842.3125,308963.15625,277351.53125,681700.875,204284.578125,203507.8125,223787.828125
210,288498.375,272896.125,309003.0625,277364.34375,681762.0625,204429.515625,203578.453125,223823.140625
211,288562.71875,273348.4375,309271.1875,277685.84375,682005.375,204599.390625,203878.3125,224147.234375
212,288525.53125,273639.625,309468.15625,277946.46875,682247.5,204641.3125,204095.671875,224427.96875
213,288426.5625,273309.28125,309287.1875,277749.21875,682054.8125,204483.25,203885.375,224249.25
214,288342.625,272800.90625,308938.9375,277328.46875,681716.8125,204267.0625,203476.25,223815.09375
215,288336.71875,272678.15625,308811.96875,277166.375,681680.6875,204235.3125,203360.390625,223651.46875
216,288405.65625,273080.03125,309026.65625,277415.90625,681811.5625,204345.921875,203571.65625,223862.203125
217,288395.0,273365.6875,309208.3125,277645.4375,681939.0625,204391.0625,203742.953125,224065.96875
218,288323.75,273124.5625,309097.8125,277532.15625,681804.25,204317.21875,203631.375,223960.375
219,288251.78125,272727.15625,308841.5625,277228.6875,681626.75,204192.671875,203380.671875,223670.515625
220,288257.84375,272632.46875,308736.34375,277098.25,681633.125,204184.0,203313.265625,223549.375
221,288325.8125,273104.28125,309013.875,277434.78125,681896.5625,204362.546875,203635.9375,223880.09375
222,288347.25,273471.1875,309283.6875,277769.78125,682212.4375,204489.234375,203942.515625,224236.5625
223,288272.59375,273163.71875,309120.53125,277590.0,682023.1875,204353.78125,203754.578125,224071.15625
224,288252.75,272764.78125,308868.84375,277271.34375,681706.4375,204244.4375,203465.171875,223752.328125
225,288321.4375,272727.59375,308821.625,277188.28125,681685.25,204292.0,203438.34375,223676.234375
226,288358.71875,273149.3125,309056.96875,277475.5625,681887.1875,204419.859375,203704.15625,223952.421875
227,288394.5625,273520.28125,309331.15625,277811.53125,682194.125,204562.640625,204003.125,224304.421875
228,288372.03125,273273.5,309235.6875,277706.59375,682082.3125,204494.328125,203890.125,224218.671875
229,288285.46875,272802.4375,308916.6875,277325.34375,681735.6875,204311.5,203532.578125,223838.6875
230,288256.96875,272675.46875,308782.03125,277162.625,681679.625,204270.28125,203422.15625,223684.203125
231,288339.125,273145.40625,309065.0,277497.28125,681937.0625,204447.484375,203740.265625,224009.8125
232,288358.0,273498.90625,309316.0625,277805.46875,682217.8125,204552.09375,204011.0,224328.640625
233,288273.9375,273187.15625,309141.90625,277612.0625,682010.75,204411.359375,203803.578125,224144.46875
234,288197.25,272733.5,308828.34375,277229.875,681678.625,204236.578125,203447.28125,223762.78125
235,288193.125,272620.5625,308709.15625,277085.03125,681649.125,204208.59375,203346.609375,223618.3125
236,288280.65625,273087.0,308993.3125,277424.84375,681904.75,204389.453125,203666.328125,223946.703125
237,288303.375,273441.6875,309259.09375,277758.09375,682209.5,204518.375,203967.71875,224294.21875
238,288231.125,273128.3125,309094.96875,277576.84375,682018.5625,204381.5,203779.515625,224121.3125
239,288112.65625,272620.21875,308731.53125,277144.9375,681648.5,204144.390625,203370.125,223678.484375
240,288094.875,272494.96875,308584.4375,276959.84375,681588.375,204086.90625,203225.5625,223485.359375
241,288191.25,272977.65625,308888.6875,277317.9375,681876.5,204287.4375,203564.765625,223827.703125
242,288245.6875,273384.8125,309195.09375,277691.46875,682220.3125,204459.734375,203909.875,224213.484375
243,288216.375,273132.875,309096.75,277584.625,682116.5625,204395.359375,203803.03125,224127.65625
244,288123.9375,272668.59375,308771.125,277195.0,681738.625,204206.984375,203436.109375,223736.5
245,288184.09375,272641.40625,308720.875,277110.5,681706.6875,204258.921875,203399.0,223659.609375
246,288340.03125,273208.5,309112.84375,277569.875,682099.125,204551.1875,203843.09375,224125.515625
247,288350.125,273612.71875,309415.75,277950.75,682516.0,204704.34375,204210.734375,224554.671875
248,288214.40625,273238.375,309194.90625,277709.8125,682310.4375,204483.421875,203972.640625,224351.890625
249,288118.75,272631.5625,308758.15625,277175.15625,681758.5625,204176.484375,203425.5625,223781.75
250,288081.0,272396.78125,308512.75,276868.03125,681519.8125,204042.640625,203124.265625,223423.21875
251,288184.09375,272908.46875,308827.28125,277239.25,681816.75,204267.59375,203471.78125,223760.109375
252,288221.1875,273338.15625,309162.5625,277655.15625,682199.125,204464.65625,203874.5625,224197.484375
253,288103.625,273003.6875,308981.84375,277464.65625,682005.125,204308.71875,203697.09375,224029.046875
254,288030.21875,272544.3125,308666.6875,277084.65625,681664.375,204129.8125,203356.53125,223646.109375
255,287994.09375,272405.90625,308514.09375,276901.8125,681595.8125,204079.125,203231.546875,223463.8125
256,288108.71875,272923.40625,308840.875,277283.875,681906.4375,204301.75,203601.515625,223842.265625
257,288134.28125,273292.03125,309109.0,277613.6875,682223.9375,204422.359375,203899.59375,224191.765625
258,288061.96875,272998.78125,308964.34375,277452.5,682069.6875,204306.3125,203732.5,224053.453125
259,288066.875,272629.34375,308748.3125,277174.15625,681782.25,204227.8125,203481.890625,223784.0625
260,288041.75,272468.3125,308592.75,276980.0625,681661.5625,204173.625,203332.125,223597.828125
261,288086.0,272876.09375,308814.3125,277247.125,681848.25,204299.25,203565.03125,223846.828125
262,288112.21875,273235.5,309076.4375,277574.0,682137.1875,204410.28125,203850.421875,224183.359375
263,288080.90625,272983.5625,308970.15625,277456.25,682015.125,204338.40625,203729.984375,224082.859375
264,288074.3125,272616.09375,308749.03125,277177.03125,681740.3125,204252.390625,203481.796875,223808.296875
265,288070.8125,272510.59375,308635.6875,277033.0,681689.25,204238.1875,203388.015625,223672.21875
266,288150.125,272968.09375,308917.21875,277371.46875,681968.1875,204421.828125,203702.71875,224003.5625
267,288154.5,273291.40625,309151.09375,277662.78125,682232.75,204507.65625,203949.75,224306.734375
268,288062.15625,272941.625,308947.875,277435.5,681983.5,204329.546875,203699.859375,224082.59375
269,287973.8125,272458.21875,308608.3125,277030.46875,681626.5,204123.375,203306.375,223659.96875
270,287969.0625,272315.0625,308455.78125,276836.46875,681565.3125,204064.546875,203151.4375,223456.84375
271,288073.40625,272797.34375,308744.5625,277170.75,681819.5,204261.515625,203456.140625,223760.46875
272,288069.46875,273113.28125,308962.28125,277446.84375,682022.625,204351.734375,203686.265625,224026.53125
273,287963.09375,272805.8125,308793.21875,277269.75,681834.0,204224.59375,203505.40625,223856.84375
274,287877.15625,272376.59375,308500.21875,276920.6875,681579.0,204062.140625,203188.984375,223510.578125
275,287880.90625,272259.0,308375.9375,276761.5625,681553.375,204031.109375,203082.0625,223352.046875
276,288019.9375,272775.4375,308706.84375,277144.03125,681860.5625,204259.015625,203444.78125,223717.546875
277,288000.8125,273114.28125,308940.71875,277440.3125,682134.4375,204355.21875,203719.359375,224034.234375
278,287966.3125,272856.53125,308826.46875,277309.0,682003.0625,204269.828125,203589.359375,223921.03125
279,287937.6875,272438.1875,308558.875,276974.15625,681687.3125,204145.734375,203283.671875,223585.046875
280,287943.78125,272313.46875,308427.34375,276800.34375,681632.5,204117.21875,203155.46875,223409.984375
281,288081.1875,272822.375,308750.125,277170.84375,681928.75,204356.734375,203497.53125,223763.0625
282,288091.5625,273193.9375,309016.8125,277509.09375,682227.9375,204479.484375,203794.28125,224110.484375
283,287980.96875,272878.5,308842.90625,277325.71875,682044.625,204333.9375,203606.15625,223950.90625
284,287898.34375,272403.125,308523.03125,276939.75,681698.75,204154.5,203253.453125,223574.046875
285,287892.1875,272232.71875,308352.875,276723.46875,681597.0625,204078.671875,203078.125,223348.296875
286,287984.90625,272692.0,308621.8125,277038.25,681825.125,204257.578125,203369.234375,223634.21875
287,288013.6875,273079.15625,308898.625,277380.78125,682114.8125,204397.765625,203675.1875,223977.984375
288,287929.1875,272804.5,308760.125,277234.34375,681966.0,204290.484375,203525.78125,223849.25
289,287825.125,272284.3125,308397.59375,276798.28125,681599.375,204063.65625,203117.109375,223407.65625
290,287800.375,272051.3125,308160.28125,276495.5625,681396.6875,203921.765625,202830.828125,223064.875
291,287914.71875,272560.65625,308471.0,276855.34375,681700.1875,204149.484375,203163.15625,223391.03125
292,287949.125,272973.65625,308784.96875,277246.5,682035.4375,204332.328125,203528.203125,223789.4375
293,287875.65625,272717.03125,308666.15625,277125.53125,681912.9375,204245.59375,203416.359375,223687.15625
294,287797.6875,272269.375,308363.78125,276762.09375,681603.25,204081.71875,203096.8125,223328.09375
295,287799.46875,272150.28125,308233.875,276593.09375,681556.375,204049.53125,202984.0625,223158.578125
296,287906.03125,272621.1875,308526.15625,276933.03125,681812.5625,204248.015625,203303.609375,223481.78125
297,287947.96875,273004.125,308807.0625,277272.78125,682106.4375,204393.390625,203607.328125,223830.296875
298,287863.3125,272711.84375,308652.03125,277104.0625,681918.125,204272.0625,203430.484375,223672.046875
299,287798.46875,272283.25,308377.375,276774.875,681639.625,204122.671875,203140.796875,223354.109375
300,287845.6875,272190.34375,308290.28125,276651.9375,681615.0625,204121.859375,203072.765625,223236.890625
301,287954.6875,272668.84375,308584.8125,276995.34375,681858.25,204327.5,203402.3125,223567.96875
302,287972.375,273047.84375,308853.28125,277331.6875,682165.4375,204459.375,203710.046875,223919.421875
303,287878.40625,272756.125,308704.15625,277178.625,682015.6875,204331.515625,203555.828125,223791.75
304,287801.875,272281.71875,308383.8125,276792.21875,681663.6875,204141.53125,203191.671875,223407.578125
305,287789.0,272118.8125,308218.84375,276582.28125,681568.0,204073.578125,203012.765625,223188.53125
306,287876.4375,272555.65625,308470.4375,276873.65625,681770.5,204228.34375,203268.65625,223452.1875
307,287928.40625,272970.78125,308773.625,277242.1875,682087.75,204393.125,203599.90625,223824.390625
308,287794.5625,272614.40625,308556.90625,277007.78125,681869.875,204187.21875,203364.3125,223600.6875
309,287693.59375,272039.6875,308131.59375,276489.5625,681436.125,203885.296875,202844.953125,223034.125
310,287735.1875,271982.375,308071.78125,276407.59375,681459.9375,203939.5625,202814.28125,222941.140625
311,287836.03125,272499.4375,308395.78125,276793.1875,681776.8125,204175.5,203193.1875,223319.78125
312,287875.46875,272905.96875,308698.96875,277168.25,682112.5,204335.453125,203541.703125,223709.140625
313,287762.90625,272592.6875,308526.15625,276989.09375,681923.3125,204187.3125,203362.53125,223545.703125
314,287630.84375,272078.59375,308164.78125,276569.59375,681559.5,203954.140625,202976.734375,223126.390625
315,287643.375,271959.3125,308040.9375,276411.6875,681506.625,203919.359375,202866.234375,222965.453125
316,287811.34375,272504.625,308400.09375,276821.28125,681819.5,204190.96875,203256.765625,223362.78125
317,287927.40625,272970.25,308765.59375,277250.5,682214.25,204413.5,203653.8125,223808.75
318,287893.6875,272713.46875,308654.71875,277122.3125,682068.25,204320.96875,203515.6875,223701.0
319,287812.59375,272255.71875,308345.1875,276749.3125,681685.4375,204146.8125,203165.125,223331.3125
320,287794.625,272116.59375,308206.34375,276577.1875,681599.375,204106.21875,203037.71875,223164.65625
321,287920.53125,272613.40625,308521.84375,276942.40625,681880.875,204320.96875,203380.40625,223518.625
322,287921.59375,272974.96875,308771.125,277250.5,682151.125,204440.78125,203652.03125,223839.859375
323,287815.28125,272674.21875,308616.1875,277091.375,681987.625,204293.96875,203497.796875,223707.0
324,287736.53125,272201.0625,308309.59375,276726.40625,681642.4375,204101.125,203168.34375,223348.296875
325,287737.6875,272055.875,308151.90625,276524.8125,681547.0,204044.078125,203006.515625,223139.796875
326,287840.15625,272510.59375,308421.375,276839.6875,681779.375,204224.5,203289.03125,223431.09375
327,287876.96875,272875.03125,308690.03125,277172.46875,682055.4375,204353.421875,203573.34375,223766.359375
328,287826.1875,272597.0625,308537.9375,277002.6875,681848.125,204215.375,203369.953125,223592.015625
329,287760.9375,272148.25,308231.28125,276636.125,681531.8125,204030.484375,203010.265625,223206.3125
330,287765.65625,272007.59375,308089.40625,276455.34375,681475.0625,203965.75,202870.4375,223016.421875
331,287898.8125,272507.28125,308407.0625,276819.75,681759.625,204190.171875,203221.53125,223363.765625
332,287955.65625,272935.90625,308718.09375,277199.28125,682089.375,204362.546875,203571.03125,223752.234375
333,287897.71875,272651.875,308583.0,277054.4375,681928.0,204240.328125,203418.046875,223619.46875
334,287852.125,272223.96875,308305.5,276717.125,681609.625,204094.140625,203108.875,223279.8125
335,287876.1875,272116.78125,308183.46875,276556.28125,681549.6875,204074.921875,202994.078125,223115.03125
336,288006.875,272615.3125,308494.15625,276916.5,681822.375,204318.375,203321.578125,223456.125
337,288022.4375,272996.71875,308772.8125,277267.21875,682130.3125,204429.15625,203636.109375,223820.015625
338,287890.21875,272666.625,308589.90625,277075.53125,681937.8125,204238.984375,203453.015625,223655.671875
339,287814.75,272208.21875,308288.5,276706.75,681601.625,204063.65625,203124.96875,223298.234375
340,287809.125,272039.59375,308130.6875,276503.6875,681508.8125,204002.234375,202966.640625,223090.359375
341,287945.125,272550.9375,308455.25,276877.40625,681800.3125,204245.59375,203320.953125,223449.140625
342,287987.59375,272974.8125,308761.8125,277252.40625,682142.5625,204400.28125,203663.203125,223839.40625
343,287897.53125,272686.75,308612.53125,277094.9375,681981.0625,204254.8125,203501.28125,223702.609375
344,287814.84375,272209.65625,308297.28125,276709.96875,681626.75,204068.84375,203157.609375,223323.171875
345,287785.25,272012.96875,308111.5625,276475.625,681508.125,203986.5,202972.890625,223079.09375
346,287878.6875,272480.65625,308389.90625,276798.125,681753.25,204176.84375,203276.96875,223382.546875
347,287921.5,272884.9375,308687.53125,277162.28125,682072.75,204317.578125,203608.84375,223756.96875
348,287861.0625,272596.875,308545.375,277002.0625,681881.0625,204189.8125,203436.640625,223600.78125
349,287798.75,272144.9375,308249.0,276640.5,681541.9375,204031.46875,203098.875,223226.25
350,287769.15625,271989.1875,308101.90625,276456.75,681497.75,203977.5625,202972.265625,223042.4375
351,287845.15625,272441.3125,308374.34375,276770.75,681750.25,204153.421875,203273.125,223343.828125
352,287881.8125,272861.0,308682.0625,277140.71875,682083.125,204325.171875,203607.421875,223728.28125
353,287860.09375,272646.40625,308606.875,277047.46875,681982.6875,204267.78125,203502.984375,223658.0
354,287810.09375,272220.84375,308331.15625,276703.875,681642.75,204117.484375,203177.09375,223319.78125
355,287791.34375,272065.09375,308180.78125,276513.96875,681563.5625,204060.53125,203025.90625,223131.9375
356,287894.40625,272541.625,308468.75,276848.375,681821.75,204256.59375,203329.09375,223451.921875
357,287964.0625,273004.5,308814.21875,277265.90625,682201.9375,204456.15625,203700.046875,223888.765625
358,287861.78125,272716.0625,308662.75,277113.0,682036.3125,204310.875,203522.75,223757.421875
359,287768.96875,272220.46875,308318.5625,276703.78125,681632.6875,204095.21875,203121.484375,223340.703125
360,287743.0625,271999.09375,308116.75,276454.78125,681478.6875,203993.296875,202902.796875,223071.21875
361,287856.59375,272459.09375,308398.84375,276782.8125,681708.375,204188.015625,203200.25,223359.109375
362,287909.78125,272901.5,308726.59375,277189.375,682051.875,204371.21875,203581.84375,223764.484375
363,287816.1875,272589.8125,308553.15625,277004.5625,681837.375,204211.09375,203398.296875,223582.984375
364,287712.46875,272092.1875,308202.9375,276590.78125,681478.6875,203996.15625,203009.640625,223149.8125
365,287732.5,271999.8125,308097.09375,276454.25,681455.625,203995.984375,202923.09375,223006.140625
366,287846.125,272496.21875,308396.6875,276807.78125,681704.75,204221.109375,203250.859375,223336.5
367,287850.34375,272887.90625,308673.125,277161.375,682017.5625,204351.546875,203579.703125,223706.546875
368,287761.75,272602.875,308531.34375,277012.59375,681862.6875,204217.171875,203437.359375,223578.96875
369,287692.96875,272150.28125,308232.71875,276651.40625,681542.875,204046.21875,203107.71875,223218.125
370,287712.84375,272026.65625,308113.28125,276490.75,681504.125,204035.140625,202997.296875,223060.859375
371,287842.75,272528.5625,308424.6875,276840.21875,681775.8125,204264.28125,203333.65625,223402.203125
372,287901.75,272959.875,308737.34375,277211.90625,682103.125,204428.703125,203669.1875,223788.09375
373,287840.3125,272704.25,308615.8125,277081.53125,681951.125,204305.6875,203524.265625,223674.546875
374,287791.0625,272270.71875,308347.59375,276753.40625,681634.625,204164.515625,203218.9375,223349.90625
375,287752.09375,272078.5,308169.15625,276537.84375,681519.125,204084.046875,203047.09375,223135.59375
376,287912.375,272608.875,308506.65625,276920.25,681815.125,204345.296875,203406.34375,223504.140625
377,287962.09375,273042.3125,308824.5,277305.9375,682163.375,204519.09375,203750.28125,223903.421875
378,287797.9375,272676.8125,308604.46875,277085.03125,681933.0,204276.453125,203514.15625,223703.953125
379,287688.96875,272159.875,308245.78125,276660.59375,681548.4375,204041.125,203110.21875,223275.703125
380,287709.25,272024.5,308114.15625,276484.65625,681480.375,204017.703125,202978.703125,223091.15625
381,287833.96875,272531.71875,308441.84375,276867.40625,681787.0,204267.78125,203353.765625,223467.484375
382,287865.34375,272941.46875,308732.9375,277227.4375,682116.625,204409.3125,203678.84375,223839.3125
383,287744.65625,272607.53125,308533.125,277012.15625,681876.9375,204227.453125,203439.78125,223627.609375
384,287683.5,272139.5625,308214.5625,276626.625,681510.6875,204035.40625,203057.921875,223218.65625
385,287690.46875,272016.53125,308089.03125,276465.625,681462.1875,204016.09375,202942.3125,223052.1875
386,287766.5625,272443.46875,308337.21875,276764.9375,681681.9375,204181.40625,203226.1875,223330.328125
387,287795.53125,272862.96875,308638.71875,277138.03125,682014.625,204332.59375,203576.03125,223715.046875
388,287749.21875,272639.78125,308547.4375,277040.21875,681913.6875,204254.28125,203487.875,223641.734375
389,287687.625,272193.125,308259.4375,276692.53125,681587.0625,204094.5,203177.640625,223300.375
390,287700.40625,272056.40625,308127.21875,276516.9375,681509.625,204058.296875,203054.703125,223129.703125
391,287883.59375,272601.875,308486.09375,276917.375,681815.25,204326.515625,203433.515625,223519.25
392,287964.0625,273071.1875,308838.625,277339.46875,682202.875,204520.796875,203812.0625,223956.71875
393,287886.09375,272843.65625,308745.90625,277249.09375,682132.875,204433.359375,203722.296875,223906.203125
394,287790.0,272355.40625,308422.4375,276867.59375,681736.5625,204234.15625,203365.75,223537.21875
395,287750.125,272115.5,308198.5625,276590.4375,681533.0,204109.171875,203127.203125,223256.921875
396,287829.875,272462.9375,308365.5,276768.875,681614.9375,204183.90625,203251.21875,223381.28125
397,287878.3125,272882.625,308661.6875,277127.5,681878.6875,204341.359375,203556.453125,223722.109375
398,287802.5,272637.375,308557.4375,277025.84375,681759.0,204257.9375,203445.234375,223631.71875
399,287735.1875,272181.9375,308252.65625,276660.15625,681454.125,204079.578125,203100.125,223256.65625
400,287707.46875,272004.75,308078.75,276449.78125,681379.4375,204014.578125,202941.59375,223037.15625
401,287807.59375,272474.40625,308356.8125,276776.9375,681651.5,204210.375,203262.84375,223344.90625
402,287897.8125,272980.875,308731.78125,277226.28125,682055.375,204444.171875,203698.78125,223811.25
403,287792.125,272698.71875,308577.375,277066.96875,681888.125,204311.671875,203553.234375,223676.6875
404,287739.46875,272270.46875,308299.3125,276728.5625,681550.0625,204155.296875,203248.71875,223344.984375
405,287736.78125,272106.46875,308158.15625,276544.125,681466.8125,204122.9375,203128.109375,223176.28125
406,287834.96875,272552.53125,308423.34375,276845.0625,681698.8125,204308.28125,203426.8125,223478.65625
407,287918.28125,273021.5625,308769.15625,277257.03125,682080.75,204515.4375,203808.671875,223910.671875
408,287870.46875,272795.8125,308684.03125,277173.34375,681998.5,204434.34375,203722.21875,223854.78125
409,287780.4375,272313.90625,308363.78125,276788.90625,681609.75,204246.859375,203367.09375,223481.328125
410,287781.5,272185.875,308242.625,276632.1875,681520.4375,204240.234375,203277.40625,223344.984375
411,287885.46875,272624.0625,308507.46875,276938.84375,681739.25,204421.375,203569.328125,223641.734375
412,287909.96875,272996.0,308764.875,277255.78125,682011.9375,204532.234375,203838.890625,223962.171875
413,287811.4375,272662.15625,308577.28125,277054.0,681781.6875,204348.234375,203612.15625,223761.625
414,287739.28125,272188.1875,308266.4375,276681.15625,681454.5,204168.53125,203250.140625,223375.390625
415,287724.625,271993.28125,308075.53125,276444.25,681344.3125,204085.734375,203040.9375,223118.15625
416,287801.25,272419.78125,308306.65625,276716.75,681544.0625,204232.734375,203278.484375,223355.71875
417,287794.1875,272819.9375,308596.59375,277084.40625,681864.0625,204382.65625,203621.546875,223742.21875
418,287681.625,272520.34375,308436.46875,276918.28125,681687.4375,204240.234375,203456.859375,223595.328125
419,287684.9375,272152.15625,308216.4375,276637.375,681439.0,204151.71875,203208.84375,223312.625
420,287817.96875,272156.46875,308213.5,276591.3125,681464.3125,204264.734375,203233.96875,223274.625
421,287927.5,272634.0,308501.84375,276922.3125,681702.0625,204485.75,203571.109375,223602.484375
422,287976.59375,273065.375,308813.59375,277302.28125,682059.25,204640.15625,203919.0,224003.375
423,287889.6875,272783.75,308668.5625,277149.65625,681902.5625,204499.0625,203757.34375,223875.4375
424,287801.0,272313.375,308351.4375,276770.84375,681538.9375,204319.0,203402.84375,223506.71875
425,287781.75,272143.6875,308192.40625,276570.5625,681460.8125,204261.421875,203260.25,223318.34375
426,287865.34375,272581.875,308456.15625,276881.09375,681702.125,204432.546875,203565.484375,223626.625
427,287906.9375,272981.96875,308745.90625,277231.75,682011.125,204583.375,203891.546875,223992.75
428,287826.75,272711.78125,308601.0625,277079.75,681839.625,204464.734375,203742.234375,223859.171875
429,287763.25,272284.03125,308326.9375,276759.9375,681531.0,204331.703125,203468.03125,223553.046875
430,287764.6875,272136.71875,308184.625,276582.65625,681464.375,204292.625,203359.671875,223389.0625
431,287858.65625,272561.375,308417.78125,276849.96875,681642.75,204442.921875,203613.9375,223640.484375
432,287903.625,272949.59375,308688.15625,277176.21875,681900.0,204570.0625,203890.65625,223962.078125
433,287849.1875,272718.46875,308592.125,277073.21875,681779.4375,204486.828125,203775.859375,223873.921875
434,287765.65625,272250.96875,308283.15625,276696.5625,681456.8125,204311.859375,203419.5625,223498.953125
435,287735.375,272054.1875,308108.875,276476.53125,681369.5625,204250.78125,203249.703125,223285.796875
436,287837.8125,272504.6875,308383.375,276787.375,681601.25,204448.5625,203549.65625,223586.65625
437,287864.1875,272928.03125,308679.75,277156.0,681923.9375,204588.65625,203884.125,223964.84375
438,287761.28125,272654.46875,308532.40625,277002.59375,681774.375,204442.390625,203732.21875,223837.359375
439,287690.65625,272187.125,308226.5625,276626.90625,681443.3125,204274.21875,203390.421875,223470.609375
440,287788.46875,272121.0625,308176.75,276528.03125,681438.5,204345.375,203341.703125,223379.328125
441,287977.28125,272656.6875,308541.71875,276931.34375,681748.4375,204624.953125,203728.921875,223778.703125
442,287990.15625,273058.125,308820.46875,277279.3125,682064.0625,204736.890625,204030.40625,224141.515625
443,287900.9375,272817.71875,308696.1875,277153.25,681943.625,204625.40625,203896.5625,224046.390625
444,287815.03125,272343.59375,308377.5625,276772.0,681568.8125,204439.703125,203545.90625,223676.0625
445,287807.59375,272165.5,308215.0,276570.75,681444.125,204392.5,203399.1875,223478.65625
446,287895.21875,272567.46875,308446.40625,276844.59375,681614.75,204537.34375,203654.625,223728.984375
447,287938.6875,272960.15625,308724.28125,277189.0,681893.125,204654.28125,203951.71875,224066.40625
448,287873.84375,272724.28125,308613.84375,277076.25,681759.4375,204554.234375,203831.5625,223968.609375
449,287829.5,272300.5,308342.0625,276745.09375,681465.125,204425.40625,203523.640625,223635.03125
450,287805.375,272125.25,308176.125,276543.75,681394.8125,204357.1875,203367.265625,223432.703125
451,287874.03125,272525.90625,308401.96875,276813.21875,681590.3125,204482.265625,203611.078125,223680.4375
452,287922.9375,272949.3125,308708.53125,277186.9375,681914.5,204635.6875,203939.03125,224056.671875
453,287821.28125,272633.8125,308534.09375,276996.34375,681701.3125,204471.265625,203726.421875,223868.015625
454,287725.09375,272159.5,308213.0625,276613.125,681378.5,204284.578125,203360.203125,223474.625
455,287720.59375,272021.71875,308080.1875,276445.84375,681357.4375,204254.359375,203242.90625,223311.90625
456,287843.90625,272478.78125,308368.4375,276773.53125,681617.0,204439.96875,203548.765625,223626.4375
457,287893.4375,272894.0625,308666.25,277129.8125,681919.375,204575.0625,203850.875,223982.109375
458,287875.375,272694.59375,308595.875,277047.75,681819.0625,204508.453125,203747.34375,223912.28125
459,287868.65625,272313.09375,308372.0,276767.4375,681512.5,204413.59375,203478.484375,223627.78125
460,287950.75,272290.65625,308347.5,276708.34375,681485.6875,204509.984375,203486.984375,223597.828125
461,288050.34375,272732.15625,308625.84375,277032.09375,681732.625,204700.5,203799.734375,223925.953125
462,288057.59375,273110.625,308888.0625,277361.28125,682040.1875,204795.640625,204084.765625,224268.109375
463,287923.28125,272723.9375,308638.625,277083.5,681739.25,204548.25,203780.953125,223990.0625
464,287845.25,272218.25,308295.75,276671.15625,681389.0,204325.890625,203369.40625,223543.828125
465,287849.4375,272059.28125,308145.46875,276476.6875,681333.0,204277.15625,203225.203125,223334.078125
466,287954.5,272473.21875,308380.25,276743.3125,681524.8125,204432.1875,203457.125,223553.3125
467,287975.6875,272908.46875,308682.34375,277121.9375,681812.625,204588.203125,203781.484375,223921.03125
468,287857.3125,272642.65625,308534.71875,276973.1875,681647.25,204452.671875,203626.90625,223786.390625
469,287760.5,272196.34375,308237.625,276626.28125,681370.0,204276.984375,203318.71875,223443.78125
470,287761.46875,272062.125,308097.4375,276444.25,681333.625,204242.296875,203194.625,223263.625
471,287882.78125,272535.625,308388.71875,276775.40625,681598.5,204447.296875,203513.71875,223581.734375
472,287982.84375,273012.34375,308757.96875,277212.53125,681990.0,204669.921875,203917.921875,224029.40625
473,287930.0,272780.34375,308663.3125,277109.875,681874.4375,204576.859375,203809.5625,223947.859375
474,287833.09375,272283.96875,308329.71875,276715.78125,681491.125,204370.5,203432.71875,223550.71875
475,287868.84375,272147.6875,308206.15625,276547.5,681405.75,204360.3125,203303.15625,223376.109375
476,288041.9375,272668.125,308554.03125,276937.59375,681690.0625,204629.0625,203666.421875,223750.890625
477,288076.09375,273085.3125,308852.65625,277300.75,681996.375,204770.328125,203974.96875,224118.09375
478,288004.46875,272846.3125,308743.40625,277186.78125,681868.6875,204684.671875,203853.109375,224021.984375
479,287946.28125,272408.40625,308468.9375,276860.6875,681542.25,204530.8125,203554.578125,223706.375
480,287944.21875,272244.25,308318.90625,276675.375,681448.3125,204471.4375,203416.171875,223532.75
481,288041.3125,272647.75,308552.25,276952.625,681630.9375,204603.3125,203657.390625,223785.9375
482,288091.1875,273041.875,308823.34375,277284.40625,681877.8125,204718.65625,203922.9375,224101.46875
483,288015.375,272765.59375,308673.40625,277126.59375,681676.5625,204577.75,203735.265625,223938.734375
484,287948.59375,272293.625,308360.65625,276753.59375,681361.875,204389.09375,203374.234375,223550.265625
485,287958.53125,272095.84375,308172.71875,276508.15625,681225.125,204316.6875,203166.546875,223277.046875
486,288076.4375,272580.96875,308469.1875,276849.15625,681500.4375,204539.921875,203496.90625,223587.109375
487,288152.8125,273075.125,308828.4375,277284.9375,681877.875,204742.890625,203903.0,224023.40625
488,288107.375,272857.15625,308732.15625,277189.0,681759.375,204645.703125,203795.96875,223934.09375
489,287997.5,272387.40625,308408.40625,276806.96875,681420.75,204437.015625,203445.59375,223558.40625
490,287982.65625,272223.15625,308249.0625,276598.03125,681352.8125,204373.28125,203288.140625,223354.203125
491,288098.25,272688.25,308522.84375,276901.5625,681581.1875,204576.859375,203564.765625,223639.140625
492,288198.40625,273175.0,308888.0625,277335.375,681961.5,204808.234375,203949.484375,224076.421875
493,288152.34375,272956.65625,308804.84375,277240.59375,681855.75,204752.265625,203849.078125,224001.6875
494,288101.3125,272506.40625,308526.40625,276896.90625,681515.375,204595.71875,203541.25,223667.296875
495,288121.0625,272352.53125,308375.0625,276696.375,681407.0625,204547.4375,203397.390625,223468.015625
496,288210.1875,272801.625,308638.53125,277014.75,681635.6875,204738.6875,203697.265625,223760.90625
497,288237.1875,273230.25,308944.125,277394.46875,681968.9375,204894.78125,204042.203125,224146.515625
498,288149.59375,272955.5,308806.875,277245.78125,681806.8125,204777.84375,203887.796875,224007.3125
499,288052.125,272460.28125,308481.0,276858.90625,681447.125,204576.5,203527.03125,223613.125
500,288060.625,272312.9375,308344.375,276676.625,681384.5625,204582.046875,203403.203125,223435.828125
501,288150.75,272743.96875,308605.375,276981.3125,681604.875,204784.28125,203698.875,223724.703125
502,288194.71875,273171.21875,308918.90625,277361.28125,681944.5,204945.65625,204045.15625,224107.625
503,288128.21875,272919.5625,308793.46875,277221.90625,681800.3125,204841.59375,203913.71875,223981.296875
504,288029.15625,272420.75,308455.0625,276813.84375,681424.25,204656.0625,203555.109375,223567.34375
505,288021.46875,272246.3125,308292.8125,276603.84375,681335.1875,204619.765625,203416.359375,223351.78125
506,288089.5,272679.3125,308533.9375,276885.46875,681531.0,204802.875,203694.40625,223616.078125
507,288154.5,273156.75,308881.53125,277313.28125,681903.375,204996.625,204083.59375,224050.765625
508,288087.71875,272921.34375,308786.0625,277216.375,681818.4375,204907.75,203988.375,223983.796875
509,288054.28125,272493.25,308518.28125,276879.03125,681457.875,204766.125,203675.625,223654.6875
510,288119.625,272404.21875,308441.84375,276757.15625,681409.5625,204803.859375,203609.203125,223543.203125
511,288154.78125,272773.375,308648.0,277009.5625,681618.5625,204921.78125,203849.890625,223790.5
512,288219.59375,273224.25,308982.03125,277412.96875,681979.8125,205095.0625,204209.84375,224206.875
513,288143.5,272963.90625,308858.75,277288.4375,681841.0,204965.328125,204071.078125,224101.546875
514,288061.78125,272503.0,308554.125,276933.3125,681480.375,204804.3125,203735.71875,223744.90625
515,288063.65625,272340.71875,308403.65625,276754.21875,681391.5625,204767.015625,203598.5625,223558.671875
516,288159.78125,272754.25,308650.5,277041.40625,681596.0,204920.625,203870.1875,223829.390625
517,288213.34375,273206.5625,308969.59375,277429.5,681930.0,205084.328125,204216.1875,224218.671875
518,288136.1875,272985.71875,308871.09375,277340.09375,681838.3125,204982.84375,204112.109375,224151.703125
519,288073.84375,272558.25,308605.90625,277022.71875,681529.1875,204850.078125,203821.546875,223850.046875
520,288091.03125,272387.9375,308465.625,276831.1875,681420.9375,204818.96875,203673.03125,223673.5625
521,288143.78125,272732.34375,308650.59375,277042.09375,681538.875,204927.953125,203838.0,223864.265625
522,288184.4375,273142.34375,308932.6875,277381.84375,681811.75,205058.125,204102.8125,224194.0
523,288116.40625,272899.0625,308821.5625,277269.03125,681684.0625,204945.84375,203967.640625,224089.921875
524,288035.21875,272418.4375,308506.75,276891.8125,681375.25,204754.6875,203622.53125,223708.875
525,287996.53125,272156.03125,308266.5,276585.78125,681193.25,204616.015625,203365.84375,223378.515625
526,288106.75,272635.40625,308550.5625,276903.96875,681460.8125,204823.625,203677.859375,223666.046875
527,288138.21875,273081.375,308881.46875,277309.4375,681815.875,204997.78125,204057.671875,224081.25
528,288054.625,272812.4375,308757.4375,277187.84375,681683.0625,204886.203125,203924.625,223975.484375
529,287995.4375,272384.4375,308480.5625,276857.03125,681388.5,204752.0,203616.4375,223645.390625
530,288031.84375,272275.46875,308368.625,276705.3125,681359.625,204756.46875,203517.65625,223494.296875
531,288162.375,272745.125,308657.03125,277033.4375,681607.4375,204960.953125,203836.46875,223807.671875
532,288222.28125,273199.5,308984.375,277430.125,681955.4375,205138.78125,204190.609375,224205.265625
533,288232.09375,273063.3125,308975.6875,277427.09375,681950.5625,205142.796875,204185.34375,224226.984375
534,288169.96875,272637.28125,308714.96875,277119.96875,681616.5625,205020.140625,203905.5,223929.625
535,288129.03125,272428.0,308524.625,276891.8125,681449.0,204938.78125,203723.546875,223715.765625
536,288194.28125,272802.875,308726.6875,277130.4375,681625.75,205037.84375,203917.65625,223935.96875
537,288218.4375,273229.875,309036.40625,277515.96875,681963.0,205173.640625,204238.0,224326.765625
538,288152.625,272981.40625,308921.34375,277401.0625,681833.75,205062.25,204097.1875,224222.96875
539,288078.59375,272500.5,308601.25,277019.5625,681459.3125,204881.015625,203733.484375,223832.609375
540,288061.34375,272234.4375,308350.65625,276702.09375,681242.6875,204744.765625,203436.203125,223474.8125
541,288138.9375,272580.4375,308526.40625,276902.71875,681378.0,204844.0,203583.71875,223599.890625
542,288192.5,273079.84375,308894.5,277353.34375,681748.5625,205064.390625,204000.625,224041.5625
543,288113.46875,272873.25,308818.875,277286.375,681684.8125,204997.6875,203949.578125,223998.375
544,288019.3125,272415.5625,308511.84375,276921.21875,681367.5625,204824.875,203619.484375,223637.34375
545,288034.6875,272282.625,308379.53125,276746.53125,681333.4375,204796.703125,203503.515625,223471.046875
546,288128.125,272714.0,308638.96875,277047.125,681582.3125,204974.71875,203797.671875,223764.75
547,288187.65625,273174.625,308970.9375,277438.28125,681936.375,205143.0625,204153.78125,224167.09375
548,288159.96875,272980.0,308902.90625,277360.9375,681853.9375,205071.8125,204071.609375,224107.984375
549,288130.1875,272565.40625,308651.21875,277048.375,681537.625,204947.09375,203786.9375,223799.265625
550,288128.125,272384.28125,308487.0,276843.0,681404.25,204890.046875,203628.609375,223593.625
551,288329.65625,272905.96875,308843.71875,277242.03125,681703.3125,205180.796875,204006.265625,223974.6875
552,288361.5625,273340.9375,309146.8125,277619.6875,682032.3125,205329.21875,204337.328125,224358.328125
553,288239.0,273056.4375,308984.71875,277456.78125,681866.375,205140.296875,204172.5625,224223.5
554,288163.875,272582.9375,308674.125,277085.5625,681491.875,204944.140625,203827.359375,223856.390625
555,288152.71875,272405.46875,308499.3125,276869.46875,681372.875,204884.5,203652.921875,223641.734375
556,288251.34375,272824.25,308749.9375,277162.625,681588.875,205057.421875,203921.40625,223922.828125
557,288315.53125,273272.34375,309070.625,277550.46875,681915.375,205209.765625,204254.453125,224311.65625
558,288266.78125,273049.09375,308969.34375,277445.25,681787.0625,205106.140625,204133.03125,224216.96875
559,288216.90625,272595.0,308680.375,277100.21875,681454.0,204936.984375,203809.46875,223865.78125
560,288216.625,272406.71875,308504.34375,276879.3125,681357.3125,204868.140625,203636.109375,223635.828125
561,288346.28125,272846.3125,308764.0625,277173.34375,681572.375,205051.609375,203906.296875,223897.796875
562,288415.5625,273311.5,309101.75,277585.625,681916.0625,205212.625,204268.484375,224304.953125
563,288354.15625,273095.0625,309001.25,277483.59375,681795.5625,205117.859375,204147.703125,224214.46875
564,288281.09375,272632.375,308691.5625,277107.8125,681449.1875,204946.46875,203794.625,223834.5
565,288264.75,272417.1875,308506.65625,276880.46875,681358.25,204840.875,203611.171875,223601.59375
566,288351.90625,272796.34375,308719.4375,277125.0625,681518.25,204962.640625,203818.765625,223809.734375
567,288404.40625,273254.90625,309039.78125,277514.09375,681828.8125,205121.796875,204149.125,224186.3125
568,288336.09375,273060.0,308950.28125,277426.1875,681725.4375,205032.921875,204053.46875,224110.578125
569,288268.3125,272609.125,308664.71875,277085.46875,681416.125,204873.78125,203749.484375,223770.75
570,288279.9375,272449.71875,308522.03125,276899.0625,681349.25,204840.34375,203622.53125,223584.78125
571,288385.15625,272903.28125,308786.9375,277196.875,681565.875,205038.546875,203909.96875,223870.078125
572,288455.8125,273382.5,309133.9375,277613.5,681920.8125,205228.453125,204279.578125,224287.421875
573,288420.40625,273194.03125,309069.5625,277550.46875,681842.75,205164.078125,204206.0,224241.46875
574,288351.03125,272735.8125,308776.75,277195.96875,681492.375,204996.171875,203874.65625,223888.765625
575,288360.40625,272583.375,308640.84375,277016.625,681415.5625,204969.796875,203756.09375,223716.46875
576,288456.25,272997.15625,308889.78125,277305.78125,681610.75,205142.796875,204029.859375,223991.671875
577,288475.46875,273415.59375,309179.71875,277671.0,681916.0,205246.25,204335.09375,224360.203125
578,288374.8125,273153.25,309042.75,277530.34375,681760.8125,205098.546875,204183.546875,224238.171875
579,288289.875,272676.8125,308737.59375,277165.125,681429.0,204903.640625,203846.484375,223876.0625
580,288280.65625,272497.09375,308574.0625,276953.6875,681358.4375,204851.953125,203691.8125,223668.828125
581,288392.5,272923.84375,308831.125,277251.15625,681589.8125,205027.90625,203968.0,223947.328125
582,288474.65625,273397.875,309174.0,277655.71875,681917.625,205215.125,204316.234375,224349.46875
583,288439.25,273228.1875,309116.40625,277595.1875,681834.75,205166.046875,204245.328125,224307.359375
584,288341.1875,272749.6875,308799.28125,277222.53125,681476.8125,204982.765625,203910.421875,223941.515625
585,288289.5,272532.34375,308591.96875,276968.71875,681360.25,204895.59375,203723.28125,223693.859375
586,288383.90625,272938.15625,308832.09375,277246.21875,681568.3125,205045.890625,203991.15625,223952.78125
587,288437.46875,273384.75,309156.1875,277639.0625,681894.375,205200.828125,204347.796875,224350.90625
588,288392.875,273198.78125,309088.6875,277568.8125,681811.8125,205137.609375,204283.59375,224307.28125
589,288320.875,272742.625,308794.625,277211.96875,681482.4375,204964.171875,203964.5,223960.828125
590,288352.34375,272609.5625,308669.75,277041.9375,681426.5625,204935.90625,203853.546875,223802.125
591,288480.03125,273056.875,308946.4375,277356.8125,681652.9375,205133.40625,204156.640625,224105.9375
592,288522.5,273502.5,309260.1875,277735.71875,681973.9375,205296.671875,204492.359375,224488.234375
593,288444.8125,273289.78125,309163.0,277636.75,681868.0,205199.21875,204400.984375,224415.453125
594,288372.9375,272832.375,308865.90625,277282.34375,681520.625,205026.84375,204082.515625,224069.453125
595,288355.40625,272653.46875,308700.9375,277077.875,681432.5625,204982.84375,203943.140625,223878.125
596,288455.0,273069.5,308958.15625,277374.96875,681662.375,205159.25,204232.09375,224167.171875
597,288518.375,273533.15625,309288.875,277771.59375,682012.5625,205319.46875,204581.140625,224570.671875
598,288438.1875,273243.03125,309119.53125,277582.5625,681791.5625,205141.28125,204362.8125,224383.546875
599,288351.1875,272722.0625,308768.96875,277158.6875,681400.0,204925.984375,203943.5,223933.015625
600,288360.5,272570.5,308632.8125,276980.0625,681348.375,204913.65625,203818.0625,223743.921875
601,288433.375,272973.71875,308863.03125,277250.5,681535.8125,205054.109375,204069.296875,223986.9375
602,288446.6875,273392.4375,309161.75,277623.4375,681850.8125,205180.890625,204392.59375,224361.375
603,288393.9375,273178.90625,309071.875,277530.8125,681734.875,205085.9375,204281.09375,224277.765625
604,288344.40625,272746.375,308798.9375,277198.65625,681425.6875,204949.328125,203968.53125,223940.171875
605,288336.0,272552.96875,308636.375,276991.6875,681356.1875,204888.265625,203807.234375,223735.421875
606,288466.1875,272986.25,308905.25,277288.6875,681583.125,205071.546875,204080.203125,224009.734375
607,288605.375,273537.34375,309323.125,277772.84375,682002.875,205333.78125,204507.5625,224491.71875
608,288597.25,273401.09375,309287.53125,277730.1875,681945.125,205308.203125,204449.890625,224462.046875
609,288503.53125,272952.1875,308988.21875,277371.9375,681584.125,205149.140625,204122.671875,224107.265625
610,288453.03125,272739.3125,308809.40625,277162.8125,681486.125,205065.109375,203986.328125,223920.765625
611,288515.15625,273109.0,309022.09375,277416.09375,681669.5,205181.6875,204229.78125,224169.140625
612,288570.34375,273549.96875,309327.6875,277779.96875,681976.6875,205321.875,204539.296875,224529.0
613,288487.53125,273253.9375,309155.21875,277587.40625,681742.75,205141.734375,204314.359375,224325.25
614,288403.84375,272757.71875,308823.96875,277194.625,681414.9375,204946.015625,203928.296875,223903.875
615,288387.21875,272573.625,308656.5,276989.8125,681344.0625,204879.59375,203776.75,223686.53125
616,288492.09375,272969.53125,308879.9375,277243.90625,681515.25,205047.5,204012.15625,223898.0625
617,288550.5,273459.40625,309228.625,277673.3125,681850.0,205230.0625,204403.578125,224313.09375
618,288468.40625,273271.8125,309150.9375,277604.125,681770.1875,205148.875,204350.125,224267.671875
619,288410.65625,272846.78125,308874.03125,277268.40625,681465.625,204997.0625,204057.671875,223938.109375
620,288372.9375,272648.46875,308679.46875,277025.84375,681366.875,204887.984375,203872.953125,223703.328125
621,288464.125,273049.46875,308918.125,277303.34375,681581.4375,205049.375,204128.03125,223961.984375
622,288542.96875,273532.875,309276.90625,277731.0,681944.0625,205264.03125,204501.390625,224391.671875
623,288550.5625,273400.65625,309271.625,277724.46875,681928.875,205250.265625,204480.5625,224410.625
624,288517.6875,272980.34375,309022.53125,277416.53125,681604.125,205117.40625,204199.734375,224108.609375
625,288473.40625,272755.9375,308834.78125,277188.90625,681470.5625,205024.421875,204033.53125,223895.015625
626,288635.34375,273227.65625,309149.0625,277539.21875,681752.125,205273.0625,204373.625,224235.390625
627,288722.3125,273739.59375,309520.71875,277982.9375,682155.25,205467.96875,204763.984375,224691.375
628,288585.53125,273414.6875,309324.71875,277776.9375,681929.9375,205243.5625,204522.671875,224498.875
629,288484.5,272882.4375,308968.0,277355.125,681507.75,205000.90625,204100.40625,224065.875
630,288492.28125,272692.09375,308806.4375,277142.59375,681409.875,204953.34375,203933.03125,223855.140625
631,288608.34375,273126.15625,309074.40625,277445.4375,681634.875,205165.6875,204228.875,224146.796875
632,288659.90625,273578.40625,309401.0,277841.0625,681967.3125,205332.171875,204595.71875,224549.5625
633,288581.0625,273361.3125,309288.0625,277724.28125,681823.5625,205231.765625,204487.453125,224447.015625
634,288490.65625,272905.78125,308978.0,277360.21875,681477.8125,205051.609375,204172.5625,224084.828125
635,288454.0,272689.96875,308782.75,277128.375,681383.9375,204949.765625,204016.71875,223859.796875
636,288537.6875,273057.25,308993.5625,277378.53125,681568.75,205092.375,204260.0,224090.203125
637,288602.96875,273528.875,309329.03125,277780.34375,681905.5625,205264.9375,204618.078125,224494.046875
638,288507.03125,273305.4375,309211.46875,277660.71875,681781.5,205133.40625,204496.203125,224400.078125
639,288414.3125,272836.75,308897.8125,277285.5625,681448.6875,204945.484375,204159.234375,224033.609375
640,288439.8125,272676.46875,308758.34375,277093.4375,681394.8125,204913.828125,204032.015625,223851.21875
641,288565.3125,273100.15625,309022.1875,277390.15625,681611.1875,205099.53125,204318.375,224130.25
642,288749.9375,273699.28125,309484.3125,277919.375,682077.625,205403.6875,204808.953125,224661.953125
643,288698.375,273516.96875,309417.34375,277849.71875,682002.875,205334.125,204741.09375,224617.15625
644,288579.1875,273015.3125,309076.09375,277448.0,681601.4375,205102.5625,204367.28125,224219.84375
645,288541.46875,272774.96875,308859.0,277182.84375,681434.375,204985.71875,204146.359375,223952.859375
646,288703.46875,273255.28125,309177.3125,277546.09375,681726.25,205246.953125,204485.21875,224301.546875
647,288788.65625,273752.90625,309551.65625,277995.8125,682123.6875,205447.59375,204883.875,224760.484375
648,288689.34375,273513.46875,309430.40625,277870.46875,681999.875,205299.078125,204762.1875,224664.640625
649,288593.125,273015.9375,309092.375,277466.625,681598.625,205062.25,204387.40625,224262.75
650,288578.03125,272794.65625,308899.875,277224.5,681454.75,204966.671875,204195.265625,224018.765625
651,288682.09375,273187.40625,309141.71875,277502.375,681646.8125,205124.921875,204457.765625,224276.4375
652,288729.3125,273636.78125,309451.0625,277876.625,681943.0625,205270.828125,204771.21875,224636.5625
653,288663.40625,273444.625,309365.9375,277791.0625,681831.125,205177.125,204666.34375,224561.640625
654,288597.5,272971.6875,309059.46875,277418.78125,681487.4375,204976.328125,204316.953125,224185.421875
655,288593.125,272801.0,308902.375,277223.34375,681418.8125,204934.84375,204187.75,223995.421875
656,288677.875,273214.15625,309131.78125,277493.0625,681610.0625,205094.515625,204460.71875,224250.859375
657,288723.03125,273679.15625,309459.90625,277897.71875,681959.4375,205234.171875,204831.9375,224660.34375
658,288653.46875,273485.0625,309371.6875,277817.53125,681866.8125,205112.671875,204751.640625,224596.859375
659,288596.15625,273047.9375,309089.40625,277477.0625,681532.375,204941.453125,204450.875,224264.546875
660,288589.5625,272840.4375,308918.46875,277258.03125,681434.0,204890.046875,204288.96875,224055.59375
661,288726.34375,273276.71875,309195.1875,277572.46875,681685.875,205082.359375,204588.03125,224360.921875
662,288770.875,273718.84375,309501.9375,277944.75,681996.4375,205208.0625,204900.953125,224730.53125
663,288703.5625,273528.40625,309420.5625,277862.6875,681899.5625,205123.578125,204802.421875,224663.5625
664,288640.53125,273075.21875,309137.4375,277526.0625,681568.5625,204960.953125,204490.046875,224324.171875
665,288606.375,272856.96875,308943.9375,277292.71875,681451.0,204865.453125,204312.828125,224090.640625
666,288722.0625,273256.78125,309189.375,277574.25,681651.875,205010.75,204575.609375,224350.1875
667,288753.96875,273667.25,309471.71875,277920.34375,681919.1875,205105.875,204846.421875,224677.25
668,288674.65625,273450.8125,309364.15625,277811.53125,681783.0625,204972.921875,204700.328125,224568.53125
669,288611.90625,272984.46875,309075.90625,277462.59375,681486.3125,204800.1875,204361.03125,224210.890625
670,288621.65625,272805.5625,308927.84375,277264.71875,681417.8125,204759.25,204204.390625,224010.265625
671,288794.46875,273287.375,309242.84375,277610.75,681673.4375,204994.296875,204522.40625,224333.390625
672,288836.21875,273736.28125,309553.34375,277993.03125,681970.4375,205136.90625,204826.75,224698.875
673,288741.46875,273530.03125,309435.59375,277870.28125,681821.375,205038.015625,204683.515625,224584.265625
674,288693.71875,273099.78125,309176.21875,277558.0,681527.25,204871.984375,204415.5625,224280.453125
675,288677.1875,272882.8125,308996.875,277341.25,681446.3125,204767.296875,204269.5625,224069.8125
676,288759.78125,273271.46875,309212.34375,277595.53125,681642.5,204909.0,204512.75,224300.21875
677,288818.4375,273745.40625,309540.03125,277990.96875,681962.6875,205065.015625,204854.28125,224686.71875
678,288743.0625,273539.5,309444.8125,277894.34375,681847.0625,204954.234375,204744.9375,224603.125
679,288662.4375,273079.15625,309142.34375,277538.84375,681517.4375,204764.703125,204410.109375,224241.921875
680,288690.0625,272927.875,309007.875,277366.46875,681458.875,204730.1875,204290.9375,224067.75
681,288814.15625,273347.8125,309264.21875,277660.0,681657.3125,204913.5625,204569.515625,224339.546875
682,288847.9375,273773.3125,309552.1875,278015.3125,681932.1875,205005.375,204864.65625,224680.375
683,288777.21875,273582.59375,309466.71875,277928.125,681823.25,204899.609375,204770.421875,224608.9375
684,288701.125,273131.0,309177.84375,277589.375,681518.5,204726.796875,204461.15625,224269.1875
685,288693.4375,272923.125,309008.84375,277381.21875,681453.125,204654.28125,204307.296875,224062.484375
686,288796.25,273333.78125,309247.5625,277649.625,681655.125,204815.296875,204555.671875,224309.25
687,288833.90625,273780.71875,309556.03125,278021.375,681953.0,204957.546875,204866.53125,224676.265625
688,288740.46875,273522.6875,309416.375,277872.78125,681764.0625,204799.125,204689.59375,224529.359375
689,288701.9375,273113.65625,309163.4375,277565.21875,681488.375,204654.640625,204405.28125,224217.515625
690,288680.03125,272903.1875,308988.84375,277344.5625,681424.0625,204597.59375,204248.640625,224000.875
691,288789.75,273287.375,309223.53125,277607.0625,681634.25,204734.75,204502.734375,224239.78125
692,288919.75,273823.90625,309619.15625,278066.71875,682002.1875,204956.203125,204903.015625,224683.140625
693,288817.0,273617.0,309515.71875,277964.34375,681886.125,204845.078125,204789.46875,224599.640625
694,288727.25,273137.09375,309199.125,277586.5,681534.75,204644.171875,204435.328125,224225.921875
695,288719.71875,272942.34375,309028.875,277363.25,681434.5625,204593.125,204264.640625,224004.8125
696,288830.5,273341.65625,309266.875,277633.09375,681641.125,204755.484375,204522.3125,224254.53125
697,288926.0,273858.40625,309642.21875,278079.75,682016.5,204957.8125,204923.3125,224696.375
698,288875.03125,273676.75,309580.78125,278021.1875,681941.8125,204876.375,204860.1875,224655.0625
699,288780.71875,273193.84375,309263.03125,277645.25,681566.6875,204672.96875,204516.5,224283.765625
700,288798.59375,273037.65625,309120.625,277455.4375,681479.75,204663.9375,204389.09375,224100.75
701,288914.8125,273472.0,309387.84375,277765.9375,681713.5625,204844.8125,204692.71875,224404.46875
702,288951.28125,273919.125,309697.5625,278145.46875,682038.8125,204976.140625,205022.90625,224786.40625
703,288872.4375,273707.0625,309589.90625,278034.4375,681909.1875,204850.96875,204892.90625,224687.25
704,288775.25,273204.40625,309257.21875,277640.875,681557.5625,204638.359375,204524.8125,224294.84375
705,288747.90625,272954.96875,309047.125,277380.15625,681441.75,204522.3125,204321.859375,224031.09375
706,288847.84375,273318.75,309257.40625,277618.78125,681609.875,204666.265625,204543.59375,224236.734375
707,288922.15625,273812.5625,309606.71875,278037.75,681938.6875,204856.25,204913.203125,224644.703125
708,288871.71875,273669.21875,309562.28125,278000.8125,681888.1875,204801.625,204876.640625,224626.640625
709,288796.4375,273197.875,309255.25,277630.40625,681546.3125,204618.515625,204540.28125,224256.3125
710,288752.625,272936.53125,309021.46875,277343.59375,681395.4375,204504.703125,204304.96875,223961.359375
711,288835.25,273300.96875,309225.125,277580.78125,681592.5,204633.265625,204523.65625,224173.171875
712,288933.5,273822.65625,309603.0625,278030.78125,681967.0625,204831.21875,204922.328125,224619.21875
713,288906.78125,273670.3125,309563.0,277988.9375,681908.0625,204763.984375,204876.015625,224596.953125
714,288858.9375,273231.21875,309290.125,277649.53125,681572.0625,204611.71875,204568.8125,224262.03125
715,288861.34375,273039.1875,309131.25,277442.90625,681484.1875,204562.1875,204426.03125,224063.828125
716,288955.125,273449.65625,309377.75,277735.28125,681706.0,204744.140625,204711.40625,224345.0
717,289018.625,273946.125,309727.0625,278161.125,682067.375,204927.59375,205087.71875,224772.734375
718,288929.75,273729.59375,309601.96875,278029.6875,681921.1875,204787.765625,204946.015625,224658.28125
719,288824.875,273161.03125,309209.5,277557.375,681500.5,204488.34375,204486.546875,224161.1875
720,288838.03125,272990.28125,309080.03125,277393.125,681454.5625,204472.78125,204375.15625,223983.625
721,288917.78125,273355.5,309294.25,277646.6875,681624.0,204615.484375,204622.1875,224218.765625
722,288956.46875,273777.40625,309583.125,277997.25,681879.0625,204733.578125,204912.9375,224555.015625
723,288917.59375,273644.09375,309545.375,277965.9375,681809.875,204684.5,204859.921875,224530.703125
724,288838.8125,273203.34375,309258.21875,277626.65625,681507.0625,204528.21875,204540.640625,224184.703125
725,288827.375,272999.84375,309077.34375,277404.5625,681429.6875,204458.03125,204371.9375,223956.71875
726,288910.71875,273349.875,309265.375,277624.78125,681585.4375,204568.1875,204571.21875,224143.125
727,288958.53125,273817.46875,309588.125,278016.90625,681878.1875,204718.296875,204902.03125,224515.6875
728,288869.5625,273585.1875,309486.5625,277924.1875,681749.4375,204594.375,204785.0,224426.28125
729,288819.5,273148.34375,309215.125,277590.96875,681473.8125,204446.953125,204471.4375,224089.21875
730,288899.25,273016.375,309109.34375,277429.6875,681440.8125,204443.640625,204355.296875,223925.234375
731,289071.1875,273472.96875,309407.625,277761.21875,681683.875,204662.234375,204666.0,224237.984375
732,289119.75,273945.9375,309730.0,278157.5625,681999.125,204801.71875,205001.359375,224625.46875
733,289103.65625,273806.46875,309702.3125,278137.78125,681953.375,204763.796875,204966.125,224621.1875
734,289097.5625,273423.8125,309482.1875,277863.59375,681655.4375,204665.453125,204723.296875,224355.015625
735,289062.6875,273213.0625,309305.0625,277654.53125,681545.5625,204597.0625,204588.296875,224167.984375
736,289117.15625,273549.96875,309478.78125,277869.03125,681695.875,204698.171875,204793.9375,224374.78125
737,289202.1875,274030.25,309817.1875,278281.09375,682021.125,204859.015625,205143.78125,224771.828125
738,289105.15625,273739.25,309631.21875,278075.03125,681748.875,204645.421875,204901.484375,224547.328125
739,289021.75,273278.6875,309331.4375,277717.9375,681434.8125,204459.28125,204570.421875,224177.015625
740,289006.5625,273064.84375,309155.5625,277499.15625,681365.4375,204403.40625,204424.0625,223959.125
741,289100.78125,273399.03125,309342.25,277712.125,681520.4375,204532.859375,204613.953125,224127.65625
742,289129.03125,273849.375,309638.09375,278073.875,681760.0625,204667.875,204913.46875,224462.125
743,289033.8125,273692.90625,309572.40625,278023.0,681687.375,204587.5,204847.84375,224425.921875
744,288915.625,273212.0,309244.90625,277636.21875,681386.8125,204373.546875,204477.609375,224040.484375
745,288859.9375,272962.28125,309022.09375,277358.59375,681279.0625,204233.984375,204255.078125,223773.515625
746,289020.21875,273399.5,309316.96875,277687.09375,681578.8125,204455.96875,204574.703125,224089.03125
747,289236.9375,274046.53125,309828.71875,278266.625,682099.625,204793.21875,205122.765625,224683.140625
748,289224.0,273917.59375,309810.75,278247.84375,682073.0625,204745.828125,205106.140625,224696.109375
749,289194.5625,273500.78125,309564.34375,277940.375,681724.5,204622.265625,204837.5625,224406.34375
750,289232.125,273343.15625,309432.28125,277756.28125,681546.5625,204617.984375,204722.234375,224245.3125
751,289243.3125,273613.71875,309547.625,277899.96875,681631.875,204666.796875,204851.25,224377.90625
752,289277.4375,274094.0,309871.53125,278301.40625,681953.375,204834.703125,205197.15625,224773.53125
753,289220.6875,273929.75,309812.71875,278264.375,681885.625,204733.765625,205135.5625,224744.03125
754,289105.53125,273352.8125,309428.53125,277803.9375,681489.0,204444.984375,204716.515625,224289.390625
755,289065.28125,273079.59375,309184.53125,277499.5,681315.4375,204321.953125,204471.0,223965.203125
756,289151.03125,273459.5625,309395.625,277744.65625,681523.75,204478.234375,204714.359375,224178.359375
757,289195.375,273931.375,309727.5,278137.78125,681848.25,204641.40625,205082.09375,224577.90625
758,289162.5625,273808.71875,309701.21875,278111.5,681818.0,204605.640625,205060.453125,224578.453125
759,289071.1875,273343.25,309391.4375,277737.6875,681503.375,204422.453125,204720.265625,224207.046875
760,289013.0625,273073.875,309159.40625,277450.25,681380.625,204294.421875,204493.4375,223920.59375
761,289079.6875,273413.0,309335.90625,277644.53125,681544.0625,204392.765625,204679.9375,224093.59375
762,289213.96875,273980.28125,309751.65625,278122.59375,681943.375,204636.84375,205104.4375,224562.4375
763,289221.3125,273882.03125,309756.5625,278125.8125,681926.8125,204628.625,205093.265625,224580.421875
764,289165.59375,273420.59375,309478.59375,277784.8125,681577.4375,204473.671875,204779.625,224242.359375
765,289168.1875,273204.40625,309300.6875,277551.46875,681458.4375,204419.5,204606.265625,224012.046875
766,289245.4375,273558.0,309497.375,277780.59375,681628.1875,204549.3125,204822.28125,224221.625
767,289315.1875,274072.71875,309860.71875,278224.34375,681995.9375,204721.15625,205208.6875,224663.65625
768,289275.21875,273947.46875,309844.375,278230.3125,681988.875,204663.40625,205190.09375,224687.875
769,289176.4375,273495.34375,309560.0625,277899.625,681666.4375,204494.15625,204888.703125,224373.171875
770,289138.875,273239.09375,309331.71875,277614.125,681499.6875,204379.890625,204658.03125,224096.71875
771,289215.40625,273510.71875,309454.03125,277740.46875,681546.75,204457.5,204746.453125,224180.046875
772,289289.625,273963.90625,309753.625,278099.625,681737.0,204586.328125,205004.671875,224483.3125
773,289217.5625,273822.28125,309703.625,278074.59375,681663.4375,204486.375,204951.5625,224452.5625
774,289108.90625,273324.21875,309389.90625,277721.15625,681424.375,204272.6875,204634.515625,224092.703125
775,289092.46875,273109.1875,309226.28125,277523.03125,681377.375,204221.46875,204514.265625,223902.359375
776,289182.9375,273490.40625,309446.59375,277779.625,681578.75,204377.03125,204780.703125,224152.15625
777,289214.6875,273966.15625,309766.9375,278172.125,681893.125,204526.34375,205126.703125,224544.5625
778,289131.375,273792.4375,309690.21875,278104.0,681804.0625,204429.15625,205041.59375,224494.140625
779,289038.375,273325.71875,309384.625,277743.5,681495.5,204246.578125,204704.34375,224138.203125
780,289116.875,273193.0625,309291.28125,277606.90625,681461.25,204285.390625,204618.875,223999.8125
781,289248.21875,273599.03125,309532.0625,277875.5625,681617.375,204467.953125,204878.953125,224247.015625
782,289321.71875,274086.59375,309877.8125,278283.96875,681952.0,204629.34375,205239.453125,224653.453125
783,289237.03125,273883.34375,309790.71875,278203.9375,681839.9375,204507.921875,205137.4375,224583.453125
784,289148.4375,273408.78125,309482.90625,277845.4375,681507.3125,204311.671875,204789.546875,224221.890625
785,289107.65625,273169.625,309276.71875,277598.65625,681409.5,204237.109375,204589.734375,223975.390625
786,289214.40625,273561.84375,309512.03125,277866.15625,681650.875,204428.265625,204855.09375,224236.28125
787,289339.84375,274133.96875,309934.125,278359.53125,682071.75,204696.390625,205300.421875,224735.53125
788,289252.0625,273951.9375,309841.40625,278274.5,681958.375,204594.28125,205188.84375,224660.796875
789,289149.875,273452.0625,309517.6875,277894.25,681590.4375,204392.3125,204834.4375,224280.453125
790,289116.25,273170.53125,309280.84375,277601.34375,681421.5625,204265.890625,204592.765625,223977.09375
791,289210.3125,273493.71875,309456.0625,277807.53125,681553.5625,204359.328125,204774.0,224137.046875
792,289258.6875,273950.40625,309765.6875,278185.8125,681820.6875,204512.296875,205095.421875,224491.453125
793,289197.25,273814.96875,309725.625,278157.71875,681761.25,204461.515625,205056.96875,224474.640625
794,289130.46875,273377.3125,309456.15625,277835.59375,681479.5,204309.96875,204768.1875,224151.625
795,289084.96875,273130.09375,309240.4375,277566.3125,681373.3125,204213.140625,204572.734375,223890.46875
796,289153.71875,273463.25,309420.21875,277777.03125,681545.9375,204350.75,204774.71875,224076.609375
797,289218.34375,273981.4375,309775.625,278212.0,681897.5625,204542.25,205155.578125,224502.0
798,289151.03125,273829.625,309724.375,278167.46875,681841.6875,204455.4375,205106.5,224479.828125
799,289094.71875,273376.40625,309453.125,277838.90625,681510.0625,204286.546875,204805.109375,224151.4375
800,289184.8125,273271.8125,309377.46875,277713.1875,681468.125,204321.6875,204743.234375,224036.28125
801,289311.25,273678.53125,309628.8125,277997.59375,681664.25,204524.015625,205028.1875,224308.625
802,289337.1875,274145.40625,309942.96875,278389.03125,681991.25,204668.765625,205368.828125,224702.8125
803,289234.8125,273962.40625,309848.21875,278305.6875,681883.875,204558.703125,205260.640625,224636.390625
804,289143.4375,273471.28125,309539.75,277951.28125,681526.6875,204364.0625,204916.78125,224283.9375
805,289108.84375,273239.90625,309351.71875,277724.09375,681435.1875,204312.296875,204747.53125,224070.96875
806,289209.0625,273634.375,309597.875,278010.84375,681683.0625,204492.984375,205037.296875,224358.59375
807,289257.0625,274075.21875,309899.09375,278375.25,681975.25,204611.453125,205340.03125,224717.65625
808,289179.8125,273865.21875,309778.46875,278246.25,681794.3125,204502.921875,205158.890625,224574.328125
809,289092.65625,273361.75,309443.1875,277854.09375,681434.8125,204280.109375,204755.671875,224147.859375
810,289048.03125,273106.84375,309234.4375,277599.46875,681326.1875,204188.296875,204563.71875,223888.140625
811,289096.40625,273428.375,309407.0,277809.9375,681505.375,204302.203125,204772.03125,224073.03125
812,289130.375,273897.65625,309727.0625,278204.03125,681812.1875,204441.578125,205113.65625,224455.609375
813,289057.15625,273759.96875,309681.46875,278165.25,681755.6875,204380.25,205063.671875,224435.75
814,288972.9375,273306.875,309402.15625,277834.34375,681466.375,204234.0625,204760.3125,224114.15625
815,289003.40625,273133.3125,309259.03125,277639.625,681422.125,204225.84375,204628.4375,223930.609375
816,289072.875,273483.25,309442.40625,277853.03125,681578.8125,204351.734375,204839.796875,224129.53125
817,289174.0,274031.25,309834.4375,278318.03125,681970.25,204570.59375,205260.8125,224594.90625
818,289175.15625,273950.40625,309849.8125,278343.15625,681981.1875,204563.625,205280.390625,224638.265625
819,289120.53125,273526.90625,309595.46875,278034.25,681648.3125,204444.53125,205010.5625,224341.15625
820,289099.8125,273305.78125,309417.28125,277810.46875,681494.5,204396.515625,204863.21875,224136.59375
821,289150.125,273643.03125,309593.84375,278021.65625,681661.1875,204515.875,205077.796875,224345.71875
822,289183.65625,274126.90625,309914.1875,278414.25,681997.875,204657.5,205421.390625,224747.78125
823,289089.25,273910.4375,309803.6875,278309.90625,681873.625,204525.359375,205292.375,224657.484375
824,288978.46875,273384.8125,309458.9375,277905.96875,681496.5,204306.75,204906.9375,224249.15625
825,288960.875,273146.65625,309263.9375,277660.625,681403.75,204228.25,204726.515625,224003.921875
826,289044.1875,273479.59375,309442.75,277866.71875,681560.0,204352.0,204929.828125,224179.875
827,289101.3125,273953.8125,309769.96875,278262.59375,681855.9375,204513.28125,205276.109375,224556.359375
828,289020.6875,273770.09375,309682.625,278174.53125,681728.625,204402.78125,205168.1875,224469.640625
829,288935.75,273323.9375,309401.8125,277839.53125,681447.5625,204233.078125,204860.1875,224136.953125
830,288944.0625,273134.21875,309248.75,277635.59375,681395.8125,204204.03125,204725.890625,223943.296875
831,289019.34375,273471.0,309433.625,277849.1875,681559.0625,204337.6875,204944.046875,224143.75
832,289076.71875,273975.8125,309776.78125,278262.78125,681899.75,204515.4375,205318.03125,224555.109375
833,289018.625,273839.1875,309732.6875,278217.375,681845.0625,204455.265625,205267.796875,224527.125
834,288932.78125,273363.09375,309434.71875,277857.40625,681504.125,204276.453125,204937.96875,224168.421875
835,288903.09375,273108.75,309226.125,277596.78125,681394.6875,204189.546875,204743.15625,223915.671875
836,288986.875,273444.90625,309407.6875,277799.375,681552.0,204335.28125,204946.1875,224101.734375
837,289036.84375,273927.25,309736.1875,278196.875,681867.1875,204504.703125,205296.9375,224493.78125
838,288968.5625,273782.5,309685.3125,278156.5625,681806.5,204435.0625,205244.8125,224467.765625
839,288903.09375,273341.65625,309417.09375,277841.125,681502.9375,204286.453125,204959.96875,224155.46875
840,288940.65625,273169.71875,309282.34375,277656.875,681455.4375,204271.890625,204845.96875,223983.0
841,289067.78125,273560.96875,309519.46875,277915.4375,681659.6875,204464.46875,205111.59375,224233.875
842,289077.1875,273959.09375,309776.40625,278236.40625,681891.125,204552.0,205375.796875,224543.765625
843,288981.0625,273739.6875,309652.15625,278110.4375,681715.5625,204399.109375,205214.0625,224414.46875
844,288897.65625,273257.5,309342.15625,277743.59375,681405.5,204204.296875,204857.140625,224034.234375
845,288871.09375,272975.6875,309105.6875,277451.21875,681244.625,204101.125,204611.8125,223722.90625
846,288940.9375,273312.125,309292.375,277677.6875,681446.4375,204251.5,204837.5625,223923.0
847,289012.71875,273847.3125,309663.9375,278130.1875,681801.75,204456.25,205247.3125,224370.75
848,288936.1875,273709.0,309611.375,278090.5,681737.4375,204377.5625,205198.5,224351.171875
849,288817.09375,273207.96875,309280.3125,277705.6875,681422.75,204171.390625,204839.796875,223971.015625
850,288796.4375,272967.75,309079.84375,277460.71875,681347.125,204105.046875,204659.46875,223731.578125
851,288836.59375,273259.3125,309225.5,277635.0625,681494.375,204205.8125,204832.296875,223889.921875
852,288942.4375,273812.28125,309619.78125,278100.40625,681870.1875,204438.546875,205246.515625,224350.734375
853,288968.375,273773.84375,309664.21875,278154.875,681905.625,204458.84375,205284.59375,224425.734375
854,288914.5625,273332.15625,309388.3125,277815.9375,681547.4375,204314.265625,204956.390625,224084.65625
855,288910.71875,273119.46875,309216.5625,277594.65625,681431.25,204292.0,204796.796875,223872.9375
856,288984.65625,273443.125,309404.125,277818.0625,681590.1875,204403.5,205032.734375,224093.6875
857,289011.09375,273912.9375,309722.40625,278213.59375,681923.0625,204539.296875,205391.703125,224499.046875
858,288957.8125,273797.34375,309697.46875,278201.34375,681909.125,204488.609375,205373.109375,224516.484375
859,288877.625,273334.65625,309408.34375,277858.84375,681576.9375,204312.75,205056.515625,224190.0625
860,288838.28125,273062.4375,309178.65625,277575.25,681416.9375,204206.984375,204828.265625,223915.40625
861,288913.03125,273373.75,309343.15625,277767.71875,681545.3125,204327.40625,205011.1875,224088.859375
862,288970.875,273848.59375,309658.9375,278150.9375,681825.25,204471.265625,205332.703125,224456.765625
863,288914.46875,273721.625,309614.9375,278112.84375,681754.0625,204406.53125,205277.625,224426.8125
864,288832.125,273259.125,309324.71875,277768.53125,681452.25,204235.5,204963.359375,224081.703125
865,288790.4375,272995.1875,309106.21875,277503.90625,681354.1875,204114.0,204765.859375,223824.5625
866,288867.78125,273304.625,309268.59375,277688.34375,681499.6875,204221.90625,204942.265625,223987.015625
867,288950.3125,273825.5,309631.84375,278121.78125,681839.1875,204407.609375,205319.46875,224410.265625
868,288891.21875,273719.75,309612.90625,278119.375,681825.125,204359.6875,205301.59375,224431.640625
869,288756.65625,273199.9375,309257.15625,277703.4375,681442.25,204122.671875,204907.390625,224019.125
870,288746.90625,272963.625,309061.0625,277456.78125,681342.6875,204054.0,204722.671875,223772.359375
871,288822.90625,273283.875,309238.71875,277665.71875,681513.375,204199.203125,204942.078125,223962.796875
872,288891.84375,273801.09375,309597.5,278099.78125,681875.5625,204376.21875,205339.578125,224397.9375
873,288889.15625,273742.0,309626.75,278141.0,681911.625,204365.671875,205373.46875,224464.546875
874,288806.28125,273275.84375,309331.0,277785.625,681549.25,204186.6875,205039.984375,224117.015625
875,288805.03125,273044.28125,309146.1875,277543.3125,681409.5625,204134.828125,204851.515625,223886.265625
876,288952.0,273443.9375,309403.0625,277827.09375,681631.125,204338.5,205135.203125,224167.71875
877,289011.03125,273974.8125,309766.84375,278272.09375,682029.375,204523.125,205539.140625,224626.8125
878,288918.03125,273845.375,309721.0,278247.5,682023.625,204443.453125,205513.484375,224639.953125
879,288805.65625,273379.1875,309430.40625,277913.1875,681704.875,204263.9375,205223.984375,224339.1875
880,288798.6875,273061.34375,309171.03125,277584.4375,681452.25,204111.484375,204946.546875,224012.6875
881,288882.0,273326.09375,309294.15625,277718.84375,681514.75,204200.625,205059.109375,224106.921875
882,288906.59375,273700.625,309516.6875,277988.21875,681634.1875,204267.15625,205251.15625,224328.640625
883,288842.125,273597.0625,309488.4375,277974.96875,681571.0,204234.96875,205215.9375,224314.703125
884,288752.46875,273177.125,309243.90625,277690.84375,681361.5,204111.40625,204974.8125,224048.53125
885,288691.03125,272879.75,308994.5625,277390.96875,681235.6875,203968.703125,204744.578125,223756.078125
886,288724.125,273173.125,309130.28125,277560.21875,681413.0,204066.4375,204918.65625,223910.9375
887,288747.09375,273672.8125,309462.96875,277978.75,681768.8125,204231.203125,205301.5,224338.296875
888,288708.03125,273576.5,309447.65625,277975.59375,681762.125,204178.375,205286.125,224358.859375
889,288687.28125,273177.03125,309221.28125,277689.15625,681480.5625,204067.5,205026.21875,224082.15625
890,288775.34375,273033.71875,309126.25,277537.96875,681399.75,204096.921875,204940.109375,223942.9375
891,288929.03125,273431.21875,309377.40625,277812.09375,681572.5,204312.484375,205215.484375,224209.734375
892,288944.21875,273888.8125,309680.75,278188.40625,681892.125,204444.890625,205535.296875,224587.484375
893,288889.53125,273764.28125,309655.90625,278174.625,681877.5625,204383.109375,205498.1875,224601.78125
894,288785.28125,273255.28125,309325.0,277779.71875,681498.375,204168.359375,205115.078125,224214.03125
895,288744.40625,272983.375,309097.28125,277500.125,681358.875,204066.875,204887.640625,223941.328125
896,288808.25,273283.34375,309263.125,277702.125,681523.875,204185.078125,205085.9375,224133.5625
897,288863.9375,273792.0,309613.34375,278133.40625,681879.625,204364.515625,205465.828125,224566.734375
898,288807.875,273686.75,309590.4375,278123.125,681868.9375,204314.53125,205443.5625,224585.78125
899,288716.875,273187.25,309266.25,277733.03125,681495.625,204110.15625,205071.984375,224196.328125
900,288670.375,272864.21875,308991.6875,277387.65625,681281.75,203965.125,204774.0,223839.765625
901,288767.84375,273202.34375,309175.78125,277590.1875,681452.3125,204123.828125,204963.359375,224013.125
902,288844.375,273753.71875,309561.9375,278059.46875,681839.375,204330.53125,205379.109375,224477.15625
903,288764.53125,273622.5625,309523.3125,278034.78125,681812.4375,204248.46875,205339.9375,224476.171875
904,288661.875,273118.03125,309196.0,277644.53125,681444.4375,204036.03125,204965.59375,224089.296875
905,288635.5,272851.0625,308967.8125,277357.1875,681305.8125,203942.328125,204735.1875,223800.25
906,288706.6875,273162.28125,309133.03125,277546.09375,681461.4375,204070.28125,204927.328125,223970.03125
907,288778.125,273684.15625,309493.8125,277982.21875,681817.4375,204256.15625,205314.546875,224400.96875
908,288750.5625,273599.59375,309489.59375,277989.8125,681814.625,204215.03125,205306.0625,224427.078125
909,288676.46875,273139.9375,309205.375,277646.6875,681475.5625,204049.265625,204985.53125,224091.359375
910,288674.21875,272914.53125,309017.625,277403.65625,681362.625,203988.640625,204802.25,223857.015625
911,288761.03125,273247.75,309200.8125,277612.78125,681526.1875,204126.6875,205010.921875,224052.640625
912,288852.84375,273791.8125,309594.90625,278087.09375,681936.625,204343.40625,205442.84375,224530.53125
913,288795.625,273685.21875,309572.40625,278080.21875,681933.875,204286.109375,205426.9375,224552.25
914,288685.59375,273161.21875,309221.75,277662.5,681524.6875,204056.328125,205027.015625,224131.6875
915,288653.3125,272900.34375,309002.25,277389.71875,681377.125,203968.96875,204810.390625,223862.03125
916,288739.84375,273239.90625,309201.96875,277621.65625,681550.25,204117.75,205046.328125,224093.0625
917,288804.84375,273744.78125,309555.5,278050.875,681915.875,204289.671875,205423.1875,224524.796875
918,288734.65625,273553.09375,309452.59375,277937.59375,681763.8125,204159.765625,205278.078125,224412.0625
919,288662.78125,273081.65625,309149.5,277573.625,681409.75,203995.984375,204926.96875,224031.8125
920,288629.78125,272841.40625,308956.03125,277337.5,681342.5625,203929.546875,204762.828125,223806.328125
921,288687.53125,273101.6875,309076.8125,277476.28125,681448.0625,204011.796875,204894.34375,223919.15625
922,288725.46875,273591.96875,309394.1875,277872.25,681735.3125,204179.0,205225.6875,224296.28125
923,288635.0625,273465.1875,309345.84375,277844.96875,681695.3125,204105.59375,205180.0,224288.6875
924,288497.90625,272919.09375,308989.28125,277437.8125,681356.5625,203842.109375,204783.46875,223883.21875
925,288416.09375,272586.96875,308711.75,277108.625,681190.375,203675.0,204504.171875,223552.0625
926,288597.96875,273018.0,308993.03125,277413.3125,681484.6875,203910.59375,204816.015625,223851.484375
927,288808.5,273693.8125,309500.25,277995.375,682001.0,204240.234375,205360.15625,224442.90625
928,288764.15625,273595.75,309485.03125,277990.4375,681988.4375,204180.953125,205340.921875,224463.296875
929,288709.8125,273159.4375,309218.34375,277663.3125,681640.0625,204037.734375,205036.046875,224140.53125
930,288625.40625,272835.0625,308942.875,277338.3125,681389.0,203890.03125,204764.96875,223817.140625
931,288683.34375,273138.59375,309100.78125,277527.3125,681524.0625,204011.71875,204956.46875,223997.125
932,288795.46875,273734.59375,309528.3125,278035.25,681979.9375,204277.609375,205418.0,224514.703125
933,288755.84375,273666.8125,309542.875,278071.0,682033.75,204244.53125,205440.171875,224588.90625
934,288647.59375,273161.5625,309227.71875,277703.28125,681669.875,204021.28125,205094.78125,224240.578125
935,288585.71875,272782.75,308908.375,277307.46875,681354.875,203816.265625,204741.90625,223832.53125
936,288636.40625,272982.6875,308966.9375,277366.375,681372.9375,203837.015625,204771.046875,223835.5625
937,288723.21875,273524.65625,309332.78125,277805.03125,681684.6875,204050.609375,205145.390625,224242.1875
938,288675.28125,273455.0,309344.9375,277841.9375,681700.3125,204026.828125,205171.671875,224296.09375
939,288608.25,273019.96875,309081.28125,277525.1875,681394.1875,203879.84375,204874.40625,223979.15625
940,288547.71875,272748.875,308849.8125,277245.78125,681267.1875,203777.5625,204656.0625,223706.640625
941,288628.8125,273087.0,309034.6875,277459.28125,681482.0,203917.03125,204881.734375,223913.890625
942,288670.65625,273587.6875,309372.21875,277875.28125,681830.25,204077.34375,205261.265625,224332.9375
943,288503.8125,273363.28125,309230.40625,277746.90625,681690.6875,203897.8125,205118.65625,224222.078125
944,288444.4375,272914.8125,308957.0,277415.90625,681376.9375,203729.359375,204814.671875,223893.5
945,288499.625,272738.6875,308824.6875,277225.65625,681317.0625,203718.1875,204692.71875,223711.296875
946,288760.3125,273244.53125,309186.40625,277608.3125,681634.1875,204044.4375,205092.828125,224092.4375
947,288850.34375,273796.71875,309571.75,278067.15625,682034.125,204257.5,205511.15625,224560.65625
948,288748.96875,273654.3125,309508.65625,278015.3125,681986.1875,204154.3125,205446.421875,224540.1875
949,288632.75,273170.25,309194.75,277650.0,681609.9375,203952.796875,205106.859375,224194.09375
950,288590.09375,272893.90625,308972.65625,277380.15625,681413.8125,203848.546875,204904.703125,223945.796875
951,288656.4375,273172.5625,309114.0,277542.59375,681543.5,203944.84375,205067.25,224099.765625
952,288736.28125,273689.0,309462.6875,277957.71875,681877.4375,204135.453125,205424.515625,224505.9375
953,288680.84375,273574.90625,309433.0,277944.125,681842.0625,204061.78125,205382.40625,224501.640625
954,288583.65625,273058.40625,309111.125,277565.40625,681473.6875,203851.578125,205020.046875,224122.203125
955,288507.65625,272629.78125,308744.9375,277112.1875,681116.9375,203609.109375,204594.734375,223631.09375
956,288601.8125,272942.625,308911.0625,277297.625,681277.5625,203749.125,204761.921875,223768.234375
957,288689.78125,273550.75,309346.8125,277833.09375,681732.5,204016.265625,205255.90625,224304.765625
958,288575.4375,273409.6875,309287.53125,277797.875,681696.6875,203920.609375,205208.515625,224298.96875
959,288425.59375,272870.28125,308920.625,277367.90625,681333.0,203675.625,204802.078125,223875.0
960,288438.1875,272631.21875,308731.875,277121.9375,681235.6875,203614.296875,204613.78125,223634.046875
961,288756.84375,273188.3125,309140.28125,277556.71875,681607.25,203981.84375,205056.96875,224062.125
962,288904.28125,273796.46875,309579.46875,278069.40625,682051.0625,204245.6875,205527.078125,224579.4375
963,288802.34375,273633.09375,309495.78125,277998.125,681969.4375,204117.296875,205437.390625,224529.71875
964,288708.5625,273126.15625,309163.0,277605.1875,681547.875,203900.484375,205055.0,224132.484375
965,288681.5625,272841.21875,308930.4375,277324.90625,681358.375,203790.515625,204825.234375,223850.5
966,288782.84375,273164.09375,309111.6875,277540.5625,681517.625,203935.0,205036.046875,224050.140625
967,288871.0,273708.375,309488.15625,278000.28125,681888.8125,204135.453125,205441.15625,224507.1875
968,288836.3125,273648.5625,309506.6875,278045.0625,681929.9375,204113.546875,205472.625,224580.421875
969,288725.46875,273169.1875,309209.65625,277704.78125,681601.5625,203923.734375,205162.734375,224266.328125
970,288661.09375,272831.3125,308932.15625,277364.34375,681368.75,203749.390625,204880.390625,223940.703125
971,288739.75,273101.0625,309059.03125,277498.96875,681455.4375,203824.40625,205012.359375,224056.671875
972,288760.9375,273466.09375,309263.84375,277741.8125,681554.0,203870.984375,205167.921875,224248.71875
973,288660.8125,273306.3125,309181.0625,277669.03125,681426.5625,203766.734375,205054.109375,224161.453125
974,288539.125,272829.25,308892.09375,277336.875,681221.6875,203584.53125,204745.203125,223833.328125
975,288515.96875,272575.25,308691.03125,277078.75,681134.875,203509.25,204548.515625,223577.8125
976,288717.75,273022.625,308994.03125,277406.25,681452.625,203778.265625,204891.5625,223898.421875
977,288866.8125,273647.59375,309446.3125,277928.65625,681905.375,204060.078125,205378.484375,224429.671875
978,288818.875,273570.4375,309435.6875,277925.53125,681897.0625,204020.109375,205363.453125,224452.203125
979,288843.1875,273218.53125,309249.28125,277679.9375,681614.5,203959.046875,205140.828125,224211.15625
980,288858.84375,273023.71875,309090.9375,277466.0625,681425.625,203930.4375,205001.265625,224012.59375
981,288855.4375,273291.03125,309210.65625,277616.8125,681564.6875,204020.75,205178.46875,224170.65625
982,288901.6875,273810.3125,309571.59375,278065.09375,681968.8125,204202.859375,205595.203125,224635.671875
983,288841.3125,273659.3125,309517.75,278018.4375,681909.625,204102.640625,205525.546875,224605.0
984,288716.5,273061.875,309110.59375,277530.09375,681419.1875,203806.25,205035.15625,224091.0
985,288668.875,272773.1875,308876.53125,277241.5625,681266.25,203690.921875,204810.828125,223795.6875
986,288731.90625,273086.28125,309048.46875,277442.5625,681436.0625,203825.03125,205036.234375,223990.5
987,288747.34375,273515.53125,309303.53125,277755.65625,681631.6875,203917.921875,205288.53125,224275.0
988,288602.96875,273310.71875,309182.3125,277644.09375,681485.125,203746.796875,205147.890625,224161.28125
989,288409.84375,272750.40625,308802.875,277213.78125,681176.625,203468.03125,204737.875,223731.046875
990,288408.78125,272530.4375,308637.28125,276996.78125,681125.0,203425.65625,204588.75,223524.875
991,288634.25,273009.6875,308967.5625,277353.875,681429.25,203738.03125,204962.828125,223879.90625
992,288690.84375,273531.8125,309318.5625,277781.0625,681778.125,203927.140625,205347.8125,224309.25
993,288743.25,273561.59375,309423.4375,277898.96875,681894.625,203991.953125,205460.015625,224458.46875
994,288727.59375,273156.125,309195.625,277606.25,681571.75,203879.65625,205199.21875,224180.40625
995,288925.90625,273135.46875,309215.75,277565.3125,681489.25,204042.015625,205232.390625,224156.984375
996,289110.09375,273620.15625,309559.4375,277951.46875,681832.5,204353.78125,205657.875,224578.890625
997,289016.375,273952.65625,309726.625,278178.75,682014.25,204319.8125,205826.765625,224818.78125
998,288881.46875,273703.90625,309564.53125,278003.84375,681818.8125,204099.421875,205608.4375,224652.125
999,288741.0,273046.78125,309089.25,277423.96875,681278.6875,203728.65625,205008.78125,224021.171875
1000,288717.84375,272811.625,308892.09375,277175.9375,681154.6875,203673.484375,204827.015625,223755.1875
1001,288813.15625,273179.46875,309114.625,277440.6875,681399.375,203866.96875,205130.28125,224005.4375
1002,288908.5625,273763.65625,309527.34375,277946.625,681821.6875,204103.796875,205623.625,224510.046875
1003,288858.65625,273700.96875,309532.15625,277977.125,681841.0,204061.25,205666.90625,224564.5
1004,288784.90625,273256.625,309257.59375,277653.375,681499.4375,203898.4375,205390.09375,224253.09375
1005,288783.3125,273007.53125,309059.03125,277402.96875,681339.125,203833.53125,205217.984375,224014.015625
1006,288828.625,273277.90625,309174.96875,277542.59375,681435.8125,203916.3125,205374.625,224143.84375
1007,288850.34375,273761.125,309478.15625,277919.5625,681740.6875,204044.875,205708.484375,224519.53125
1008,288848.9375,273727.625,309507.125,277960.59375,681774.75,204037.640625,205733.328125,224578.8125
1009,288970.34375,273456.25,309406.8125,277799.375,681578.75,204040.40625,205595.203125,224422.796875
1010,289060.5625,273287.28125,309302.28125,277641.84375,681421.8125,204061.953125,205508.828125,224279.734375
1011,289140.9375,273591.09375,309474.59375,277843.0,681559.1875,204187.125,205729.578125,224485.828125
1012,289200.375,274121.1875,309829.4375,278279.21875,681949.0625,204350.125,206115.375,224929.28125
1013,289130.90625,274004.78125,309794.125,278257.875,681937.4375,204257.40625,206069.859375,224936.875
1014,289044.375,273479.40625,309463.21875,277861.875,681530.9375,204032.453125,205680.578125,224535.4375
1015,289019.6875,273168.8125,309205.65625,277535.625,681310.875,203899.859375,205389.75,224190.515625
1016,289120.8125,273428.8125,309331.875,277673.59375,681405.125,203971.84375,205496.765625,224284.203125
1017,289240.15625,273933.15625,309676.5625,278081.90625,681655.75,204150.109375,205811.203125,224641.390625
1018,289177.75,273834.28125,309650.4375,278068.3125,681569.75,204116.59375,205755.6875,224612.328125
1019,289113.9375,273428.28125,309427.8125,277810.1875,681354.8125,204012.34375,205518.75,224357.25
1020,289109.375,273165.5,309241.40625,277584.1875,681281.75,203908.453125,205339.046875,224130.96875
1021,289170.25,273436.15625,309377.03125,277745.21875,681400.125,203999.734375,205485.140625,224273.75
1022,289261.90625,273994.9375,309754.4375,278198.9375,681751.5625,204201.4375,205869.765625,224722.03125
1023,289208.0625,273910.1875,309746.09375,278214.6875,681756.75,204152.625,205857.34375,224757.890625
1024,289211.1875,273511.78125,309530.8125,277945.46875,681462.25,204041.03125,205594.84375,224486.53125
1025,289272.09375,273331.375,309406.1875,277765.9375,681385.1875,204044.25,205471.734375,224316.578125
1026,289338.59375,273654.9375,309578.375,277968.8125,681563.8125,204171.390625,205688.0,224523.8125
1027,289458.78125,274247.78125,310014.59375,278493.71875,682033.75,204418.25,206171.515625,225067.6875
1028,289401.1875,274101.875,309968.71875,278458.40625,681982.3125,204313.8125,206105.53125,225055.34375
1029,289288.0,273506.25,309553.25,277963.0,681452.0625,204002.5,205588.671875,224526.953125
1030,289267.4375,273194.3125,309288.53125,277637.65625,681202.5,203871.171875,205284.515625,224162.53125
1031,289364.28125,273556.125,309506.3125,277900.25,681424.625,204074.203125,205557.828125,224411.078125
1032,289447.59375,274106.96875,309890.6875,278370.0625,681787.1875,204285.296875,205981.890625,224869.640625
1033,289383.59375,274019.25,309879.15625,278386.15625,681770.625,204219.21875,205982.25,224897.984375
1034,289312.59375,273566.40625,309604.5625,278063.84375,681444.125,204043.09375,205677.8125,224575.234375
1035,289293.625,273310.78125,309396.96875,277805.8125,681316.0625,203957.796875,205476.734375,224322.75
1036,289465.65625,273696.3125,309635.25,278063.59375,681517.3125,204174.078125,205724.21875,224558.234375
1037,289616.40625,274336.03125,310099.90625,278608.96875,681976.9375,204484.046875,206209.34375,225095.40625
1038,289496.78125,274186.90625,310028.71875,278551.5625,681910.1875,204357.359375,206133.78125,225057.765625
1039,289388.3125,273614.5,309655.1875,278104.25,681458.3125,204081.09375,205685.40625,224586.40625
1040,289387.96875,273419.15625,309505.34375,277910.6875,681387.25,204048.453125,205559.34375,224400.4375
1041,289534.9375,273825.5,309787.875,278229.96875,681658.5625,204287.265625,205903.296875,224733.921875
1042,289725.90625,274464.9375,310261.375,278770.6875,682142.8125,204575.78125,206394.9375,225276.625
1043,289618.8125,274192.96875,310067.71875,278545.84375,681838.0,204330.625,206106.609375,225019.84375
1044,289482.28125,273597.71875,309648.46875,278048.84375,681325.25,204029.0625,205583.84375,224464.8125
1045,289424.71875,273347.8125,309445.625,277809.5,681226.375,203955.5625,205410.9375,224219.125
1046,289486.84375,273662.34375,309626.125,278029.25,681410.375,204100.5,205657.0625,224432.890625
1047,289625.5,274283.28125,310073.59375,278564.8125,681857.0625,204370.328125,206163.109375,224968.078125
1048,289687.65625,274329.21875,310179.03125,278688.1875,681955.6875,204432.1875,206286.3125,225110.328125
1049,289684.0,273926.625,309947.625,278394.84375,681598.6875,204301.921875,206023.640625,224811.703125
1050,289649.46875,273661.71875,309733.59375,278133.5,681380.1875,204212.96875,205840.0,224559.9375
1051,289665.03125,273895.15625,309829.4375,278253.03125,681466.75,204273.140625,205973.03125,224673.390625
1052,289698.125,274392.34375,310146.65625,278642.75,681767.5,204408.140625,206303.21875,225055.53125
1053,289669.21875,274351.84375,310165.15625,278679.59375,681781.0,204385.34375,206308.9375,225106.671875
1054,289753.375,274051.09375,310055.46875,278520.53125,681585.5625,204390.984375,206173.9375,224958.515625
1055,289815.3125,273848.9375,309922.875,278335.1875,681442.875,204393.125,206055.015625,224784.703125
1056,289861.5625,274127.53125,310067.4375,278508.75,681580.4375,204509.625,206248.40625,224959.59375
1057,289932.90625,274659.15625,310430.34375,278944.40625,681947.625,204694.6875,206636.875,225396.171875
1058,289892.40625,274566.78125,310412.46875,278931.28125,681903.5625,204633.984375,206584.3125,225391.34375
1059,289807.28125,274107.40625,310131.1875,278596.4375,681547.4375,204486.90625,206252.34375,225054.1875
1060,289743.34375,273765.25,309861.09375,278261.96875,681338.9375,204335.28125,205965.609375,224725.875
1061,289738.625,273850.8125,309833.625,278223.25,681311.0625,204268.671875,205893.640625,224631.828125
1062,289758.8125,274298.9375,310098.8125,278548.53125,681481.3125,204365.5,206134.5,224900.9375
1063,289664.84375,274240.0,310091.9375,278575.78125,681467.5,204314.4375,206149.171875,224935.359375
1064,289674.5,273877.90625,309908.90625,278347.8125,681324.75,204210.109375,205955.953125,224706.5625
1065,289835.09375,273802.96875,309893.625,278284.875,681386.1875,204312.75,205981.609375,224649.078125
1066,290051.0,274257.96875,310203.15625,278621.125,681653.875,204599.203125,206356.40625,224985.609375
1067,290054.3125,274727.09375,310489.09375,278979.5625,681926.4375,204704.703125,206669.0625,225337.328125
1068,289943.28125,274587.0,310408.34375,278913.03125,681823.875,204564.78125,206565.796875,225278.59375
1069,289924.125,274203.0625,310194.40625,278650.53125,681519.125,204462.0625,206314.5625,225021.734375
1070,290062.90625,274098.46875,310153.34375,278558.90625,681437.75,204552.71875,206294.625,224949.21875
1071,290154.1875,274434.09375,310356.59375,278790.71875,681616.375,204738.5,206555.515625,225191.953125
1072,290197.28125,274986.0,310739.15625,279262.8125,682058.75,204937.875,207000.40625,225693.53125
1073,290146.3125,274927.8125,310751.75,279295.4375,682109.1875,204893.625,207026.421875,225768.28125
1074,290032.75,274334.78125,310352.46875,278816.75,681618.1875,204595.453125,206550.609375,225273.59375
1075,289943.8125,273813.0,309912.125,278271.0,681118.125,204289.953125,206011.296875,224658.5625
1076,290052.53125,274100.25,310062.59375,278429.875,681244.875,204431.203125,206149.875,224751.8125
1077,290165.53125,274750.78125,310531.46875,278991.90625,681713.1875,204737.15625,206670.59375,225302.5625
1078,290107.15625,274703.9375,310550.9375,279035.25,681725.0,204697.828125,206699.109375,225360.046875
1079,290000.75,274242.78125,310268.25,278708.84375,681431.5625,204509.625,206397.71875,225040.6875
1080,289986.90625,273995.03125,310064.9375,278447.125,681308.0,204435.234375,206199.59375,224785.515625
1081,290060.3125,274283.625,310204.84375,278603.25,681454.9375,204551.734375,206369.546875,224929.734375
1082,290200.65625,274919.0625,310654.65625,279137.28125,681913.375,204798.671875,206875.78125,225465.546875
1083,290253.875,274959.8125,310772.78125,279270.125,682048.5625,204852.140625,207013.015625,225630.671875
1084,290238.65625,274570.09375,310556.21875,278991.28125,681739.9375,204750.578125,206770.71875,225366.21875
1085,290253.6875,274327.71875,310374.625,278748.875,681503.1875,204709.71875,206600.84375,225138.046875
1086,290335.75,274611.125,310530.03125,278929.03125,681623.625,204850.625,206793.96875,225316.6875
1087,290378.3125,275135.78125,310882.1875,279369.0,682001.75,205022.28125,207185.296875,225767.109375
1088,290325.3125,275071.03125,310898.21875,279415.6875,682048.6875,204962.90625,207211.859375,225844.265625
1089,290249.5,274629.46875,310640.1875,279109.65625,681741.75,204806.984375,206939.078125,225561.203125
1090,290209.34375,274287.75,310367.75,278766.78125,681482.1875,204667.421875,206655.65625,225221.46875
1091,290300.1875,274522.875,310476.46875,278875.75,681519.375,204752.359375,206760.703125,225299.421875
1092,290366.15625,274980.5625,310762.5,279212.09375,681700.0,204860.71875,207024.375,225589.640625
1093,290297.75,274882.5625,310723.875,279181.4375,681597.625,204791.703125,206953.46875,225541.1875
1094,290155.875,274398.875,310419.96875,278836.5,681351.375,204572.03125,206631.34375,225192.9375
1095,290008.90625,274043.21875,310128.78125,278505.875,681209.75,204396.96875,206370.8125,224878.59375
1096,290038.40625,274293.28125,310248.5625,278652.875,681391.875,204490.390625,206525.390625,225021.640625
1097,290298.125,275035.0,310811.21875,279294.34375,681957.6875,204873.859375,207120.03125,225665.546875
1098,290334.34375,275085.0,310916.4375,279422.03125,682078.0,204925.1875,207238.765625,225822.546875
1099,290328.0,274689.71875,310695.0,279142.53125,681760.4375,204804.9375,206989.40625,225550.84375
1100,290371.875,274486.40625,310551.65625,278940.75,681544.875,204807.53125,206871.75,225367.203125
1101,290481.75,274790.46875,310721.09375,279122.15625,681642.25,204972.84375,207074.34375,225545.46875
1102,290609.625,275385.9375,311131.90625,279600.5625,682039.4375,205221.484375,207494.03125,226022.734375
1103,290529.78125,275341.21875,311137.375,279631.5,682062.875,205172.125,207491.796875,226087.734375
1104,290401.5625,274849.65625,310833.84375,279289.875,681705.6875,204946.46875,207163.046875,225770.78125
1105,290353.1875,274570.53125,310630.15625,279043.9375,681537.8125,204864.5625,206998.53125,225557.453125
1106,290420.53125,274772.5,310725.28125,279146.03125,681605.375,204924.296875,207121.46875,225651.875
1107,290496.34375,275249.5,311034.8125,279511.71875,681848.5625,205063.234375,207432.609375,225989.015625
1108,290436.25,275130.40625,310974.65625,279452.53125,681725.625,204954.0625,207337.734375,225913.46875
1109,290369.5625,274646.8125,310664.75,279081.75,681413.625,204754.421875,206971.796875,225508.28125
1110,290358.03125,274417.3125,310486.3125,278852.25,681331.625,204713.734375,206812.75,225277.96875
1111,290427.3125,274724.9375,310659.84375,279051.25,681517.3125,204875.03125,207035.8125,225474.578125
1112,290443.21875,275240.75,310995.9375,279470.125,681853.75,205043.296875,207409.71875,225900.421875
1113,290386.8125,275194.96875,311010.0625,279503.75,681877.0,205002.515625,207421.6875,225962.46875
1114,290300.4375,274721.46875,310721.53125,279160.96875,681534.25,204806.8125,207103.578125,225632.46875
1115,290468.8125,274622.84375,310689.53125,279064.21875,681491.5,204896.21875,207089.375,225551.375
1116,290656.09375,275019.8125,310949.0,279336.375,681662.8125,205142.171875,207399.703125,225821.65625
1117,290682.9375,275519.875,311263.53125,279722.25,681975.1875,205278.078125,207740.703125,226202.34375
1118,290634.03125,275450.03125,311263.15625,279738.25,681967.9375,205219.78125,207730.78125,226237.125
1119,290546.9375,274969.03125,310974.75,279396.46875,681621.5,205039.171875,207399.4375,225902.203125
1120,290517.25,274672.90625,310744.15625,279113.84375,681470.1875,204922.5,207171.09375,225627.8125
1121,290596.84375,274962.21875,310896.34375,279289.25,681633.75,205050.0,207357.046875,225799.75
1122,290688.75,275522.53125,311284.34375,279757.5625,682020.625,205264.21875,207776.546875,226268.328125
1123,290637.34375,275397.5625,311231.34375,279710.90625,681923.125,205156.84375,207691.890625,226219.953125
1124,290581.71875,274965.4375,310962.75,279389.40625,681571.25,204997.328125,207384.046875,225886.109375
1125,290507.59375,274609.625,310685.78125,279059.125,681374.4375,204844.0,207115.921875,225555.390625
1126,290557.125,274805.40625,310762.9375,279145.21875,681457.1875,204888.609375,207186.203125,225610.203125
1127,290601.125,275339.71875,311113.15625,279576.15625,681779.625,205077.71875,207550.265625,226028.546875
1128,290543.625,275309.65625,311138.71875,279629.1875,681812.1875,205059.203125,207573.859375,226105.515625
1129,290536.21875,274936.03125,310938.34375,279381.09375,681556.75,204964.078125,207334.171875,225867.15625
1130,290627.125,274779.65625,310842.5,279230.625,681502.8125,205001.0,207251.28125,225734.84375
1131,290742.125,275085.0625,311021.21875,279426.40625,681630.875,205156.65625,207471.40625,225932.0625
1132,290842.96875,275640.03125,311399.59375,279877.5625,681990.0,205368.734375,207870.703125,226377.5
1133,290794.25,275577.8125,311401.21875,279902.3125,681986.25,205321.171875,207867.828125,226423.890625
1134,290736.40625,275125.5,311133.53125,279581.1875,681644.3125,205151.390625,207565.46875,226112.765625
1135,290778.15625,274933.90625,311004.78125,279399.84375,681560.0625,205158.0,207457.640625,225956.484375
1136,290849.9375,275245.28125,311192.71875,279622.65625,681766.0625,205317.046875,207712.796875,226206.90625
1137,290923.96875,275814.5625,311582.25,280097.59375,682199.6875,205516.515625,208144.90625,226705.265625
1138,290841.71875,275638.25,311471.9375,279987.96875,682052.8125,205346.734375,207987.8125,226594.84375
1139,290759.71875,275053.96875,311069.96875,279502.40625,681545.25,205061.96875,207476.859375,226055.890625
1140,290769.03125,274860.65625,310931.375,279331.8125,681497.375,205069.046875,207381.546875,225885.9375
1141,290852.96875,275135.3125,311080.40625,279505.28125,681600.1875,205203.421875,207583.25,226056.4375
1142,290927.1875,275596.40625,311367.875,279845.1875,681806.75,205311.328125,207856.125,226363.1875
1143,290841.53125,275509.75,311331.28125,279826.78125,681735.1875,205220.859375,207804.71875,226344.859375
1144,290689.90625,275027.40625,311012.125,279468.0625,681448.3125,205008.0625,207460.234375,225996.703125
1145,290579.3125,274667.28125,310724.21875,279136.28125,681312.3125,204831.390625,207189.5,225685.484375
1146,290726.65625,274986.65625,310932.53125,279365.625,681556.5,205001.625,207435.375,225915.96875
1147,291088.9375,275814.71875,311581.46875,280085.0625,682191.25,205476.109375,208121.296875,226640.4375
1148,291130.3125,275861.21875,311675.34375,280192.90625,682288.9375,205517.421875,208226.890625,226775.53125
1149,290996.9375,275348.03125,311336.46875,279800.21875,681854.6875,205284.0625,207859.609375,226395.46875
1150,291077.21875,275167.25,311225.78125,279634.09375,681626.375,205300.6875,207767.15625,226253.21875
1151,291197.90625,275476.3125,311404.15625,279829.0,681728.875,205462.703125,207976.109375,226457.96875
1152,291253.34375,276043.0625,311793.09375,280307.0625,682166.625,205678.34375,208400.171875,226959.53125
1153,291172.4375,276026.90625,311832.40625,280385.125,682292.3125,205643.921875,208460.328125,227103.84375
1154,291052.71875,275490.28125,311492.3125,279989.9375,681896.5625,205383.390625,208071.140625,226733.953125
1155,290970.03125,274974.5625,311071.9375,279472.90625,681413.25,205082.984375,207574.578125,226186.609375
1156,291079.0,275209.8125,311181.0,279588.0625,681495.625,205181.609375,207670.875,226243.921875
1157,291182.09375,275840.46875,311622.21875,280123.0625,681929.6875,205455.09375,208167.53125,226769.71875
1158,291090.90625,275720.03125,311560.53125,280069.25,681815.5625,205337.4375,208089.46875,226715.453125
1159,291022.21875,275309.40625,311321.0,279786.09375,681558.875,205207.703125,207830.28125,226432.65625
1160,291016.25,275048.40625,311127.1875,279539.15625,681473.5,205142.71875,207639.84375,226195.28125
1161,291028.9375,275265.21875,311212.46875,279647.25,681572.9375,205217.71875,207750.09375,226303.90625
1162,291089.8125,275815.71875,311575.90625,280090.4375,681935.0625,205407.4375,208130.609375,226750.59375
1163,290990.03125,275720.3125,311545.34375,280082.65625,681923.25,205305.4375,208091.4375,226769.90625
1164,290883.28125,275240.65625,311245.65625,279727.4375,681583.25,205091.125,207754.015625,226428.640625
1165,291049.59375,275144.4375,311211.03125,279628.46875,681574.875,205182.140625,207729.171875,226346.828125
1166,291219.65625,275497.5,311438.9375,279867.375,681755.875,205392.515625,207990.0625,226587.78125
1167,291337.03125,276072.3125,311845.46875,280345.25,682149.5,205626.578125,208412.859375,227067.53125
1168,291331.59375,276073.65625,311906.625,280423.375,682214.0,205624.078125,208462.484375,227175.359375
1169,291209.53125,275560.625,311583.0625,280046.71875,681817.9375,205397.34375,208090.734375,226811.5625
