Unnamed: 0,EEG 1,EEG 2,EEG 3,EEG 4,EEG 5,EEG 6,EEG 7,EEG 8
0,289894.0,273965.96875,309322.9375,277984.28125,681541.375,204533.765625,203509.328125,228076.671875
1,290031.25,274597.375,309746.5625,278488.25,681928.25,204786.25,203939.921875,228531.3125
2,290042.34375,274794.6875,309927.4375,278714.375,682115.125,204856.703125,204101.75,228735.34375
3,289948.625,274217.84375,309555.75,278265.28125,681664.5625,204568.0,203616.796875,228245.125
4,289956.84375,273859.03125,309272.53125,277901.84375,681401.8125,204428.4375,203266.234375,227834.921875
5,289981.875,274026.84375,309322.78125,277961.03125,681493.1875,204521.328125,203349.390625,227864.515625
6,289993.4375,274575.0,309703.0,278445.34375,681894.375,204755.75,203800.796875,228340.515625
7,289977.59375,274735.3125,309855.0,278634.28125,682076.1875,204795.453125,203971.125,228550.53125
8,289942.1875,274279.25,309583.9375,278316.6875,681718.9375,204589.015625,203628.515625,228192.453125
9,289974.46875,273981.34375,309346.90625,278016.28125,681487.125,204471.890625,203335.171875,227838.671875
10,289927.4375,274072.53125,309356.28125,278019.78125,681567.5,204557.09375,203413.3125,227874.96875
11,290046.4375,274674.15625,309751.75,278492.8125,681930.625,204782.21875,203823.875,228329.25
12,290140.21875,274880.0625,309971.40625,278771.15625,682146.9375,204864.921875,204014.578125,228575.5625
13,290042.34375,274434.65625,309722.0625,278483.71875,681809.4375,204675.46875,203698.25,228259.515625
14,289973.84375,274084.96875,309455.8125,278134.65625,681585.0,204598.046875,203452.375,227951.0625
15,290170.53125,274326.625,309600.90625,278270.46875,681669.75,204769.96875,203605.53125,228059.859375
16,290163.3125,274918.59375,309952.46875,278710.0,682000.5,204970.875,203995.984375,228483.125
17,290158.375,274950.15625,310047.40625,278822.375,682121.6875,204941.90625,204088.78125,228627.15625
18,290109.21875,274506.25,309771.59375,278497.03125,681730.75,204706.765625,203699.765625,228244.9375
19,290029.1875,274049.46875,309479.75,278176.78125,681519.8125,204557.0,203406.96875,227907.78125
20,290033.5625,274176.15625,309486.5625,278180.0,681581.3125,204603.3125,203449.25,227903.40625
21,290037.5,274699.65625,309837.84375,278633.46875,681940.5,204813.328125,203853.46875,228337.46875
22,290050.03125,274788.15625,309907.5,278701.59375,681966.4375,204765.234375,203884.484375,228404.265625
23,289949.34375,274268.34375,309602.78125,278330.65625,681606.0,204550.125,203534.546875,228031.25
24,289955.34375,274001.03125,309385.71875,278048.75,681462.8125,204478.15625,203306.65625,227732.8125
25,290000.40625,274155.15625,309431.84375,278086.1875,681566.9375,204565.953125,203402.765625,227773.859375
26,290120.90625,274706.09375,309815.9375,278544.5,681931.125,204778.90625,203819.390625,228209.796875
27,290192.96875,275017.65625,310030.34375,278799.59375,682114.75,204901.84375,203991.953125,228425.359375
28,290116.1875,274532.71875,309798.21875,278541.0,681842.9375,204748.875,203749.21875,228177.703125
29,290046.8125,274122.78125,309505.15625,278182.21875,681557.125,204596.875,203443.171875,227813.28125
30,290068.53125,274208.4375,309539.40625,278223.71875,681656.0625,204712.03125,203557.171875,227876.578125
31,290254.21875,274829.8125,309943.0625,278664.65625,682002.1875,204921.25,203968.078125,228310.203125
32,290207.09375,275044.3125,310072.25,278828.09375,682139.75,204908.640625,204086.8125,228469.4375
33,290055.28125,274560.4375,309770.25,278491.75,681801.1875,204713.5625,203764.953125,228136.484375
34,290046.875,274129.9375,309518.75,278184.28125,681570.0625,204617.171875,203510.671875,227819.359375
35,290069.25,274240.4375,309541.625,278208.34375,681625.6875,204676.71875,203569.59375,227837.0625
36,290118.15625,274740.15625,309852.40625,278591.09375,681883.8125,204825.40625,203883.59375,228181.640625
37,290128.15625,274796.28125,309938.0625,278708.46875,681938.6875,204833.984375,203925.875,228266.9375
38,290118.9375,274447.96875,309756.21875,278495.0625,681678.5,204728.40625,203671.25,228012.5625
39,289983.15625,274058.875,309421.46875,278089.59375,681404.0625,204550.03125,203323.015625,227610.328125
40,289902.5,273954.4375,309308.28125,277943.40625,681409.75,204500.859375,203251.3125,227487.21875
41,290024.8125,274577.6875,309672.625,278364.875,681724.125,204691.109375,203583.546875,227841.53125
42,290006.84375,274815.59375,309864.46875,278618.09375,681936.3125,204785.078125,203792.484375,228094.015625
43,289877.375,274274.78125,309579.28125,278323.75,681647.125,204572.203125,203474.28125,227770.359375
44,289823.71875,273873.625,309280.75,277945.84375,681445.0625,204411.71875,203171.640625,227403.078125
45,289956.59375,274039.65625,309363.71875,278012.71875,681531.375,204538.234375,203288.765625,227472.546875
46,290079.6875,274741.5625,309822.09375,278589.90625,681952.5625,204841.40625,203766.921875,227969.203125
47,289993.5,274918.25,309966.21875,278791.8125,682171.1875,204874.84375,203944.84375,228196.390625
48,289945.6875,274527.71875,309722.40625,278484.34375,681863.75,204686.734375,203642.640625,227894.1875
49,289919.75,274178.21875,309438.0,278103.0,681543.4375,204552.359375,203314.515625,227516.71875
50,289943.34375,274163.84375,309452.59375,278126.53125,681592.3125,204652.765625,203379.6875,227541.9375
51,290125.03125,274893.3125,309981.0625,278745.5,682139.25,205000.734375,203956.015625,228154.90625
52,290216.6875,275239.65625,310237.75,279031.0625,682433.3125,205120.0,204196.34375,228447.796875
53,290223.375,274851.46875,310080.9375,278875.125,682233.1875,204999.84375,203985.875,228247.984375
54,289956.21875,274391.625,309713.03125,278479.875,681813.0625,204800.90625,203650.234375,227870.328125
55,289923.34375,274420.0625,309629.0,278330.71875,681689.4375,204753.96875,203626.375,227805.234375
56,290097.3125,275002.09375,309989.5625,278740.9375,681964.8125,204943.78125,203936.34375,228138.90625
57,290112.0625,275134.78125,310109.71875,278908.84375,682040.0,204924.203125,203996.15625,228238.859375
58,289977.96875,274587.15625,309796.34375,278559.34375,681629.0625,204691.390625,203616.625,227840.546875
59,289893.1875,274198.34375,309522.9375,278217.375,681441.25,204589.8125,203386.046875,227545.328125
60,290026.25,274447.78125,309638.09375,278311.78125,681571.9375,204733.578125,203538.21875,227649.046875
61,290181.1875,275037.59375,310075.65625,278861.1875,681998.4375,204997.96875,204000.453125,228146.59375
62,290189.03125,275281.6875,310267.4375,279108.40625,682253.125,205051.421875,204189.453125,228386.203125
63,289947.1875,274715.5625,309928.5,278777.0625,681906.9375,204801.265625,203834.515625,228042.96875
64,289874.78125,274359.53125,309652.59375,278458.125,681580.25,204637.734375,203546.4375,227719.5
65,289822.3125,274289.0,309533.9375,278303.625,681544.125,204574.0,203473.125,227618.109375
66,290162.21875,275250.46875,310158.625,278993.0625,682159.875,205017.984375,204097.984375,228280.875
67,290287.46875,275577.25,310523.0625,279438.46875,682639.9375,205264.84375,204506.046875,228749.28125
68,290225.15625,275125.5,310292.375,279153.09375,682405.3125,205131.625,204244.171875,228507.703125
69,290026.5,274565.71875,309912.125,278728.78125,681959.4375,204898.8125,203868.578125,228107.515625
70,290047.96875,274682.84375,309938.4375,278752.46875,681956.125,205001.71875,203949.75,228170.734375
71,290273.8125,275526.5625,310475.59375,279372.59375,682568.1875,205334.671875,204507.65625,228788.71875
72,290171.875,275527.65625,310593.78125,279593.875,682859.0625,205311.15625,204661.703125,229024.484375
73,290015.59375,275046.71875,310264.03125,279208.34375,682520.3125,205061.078125,204269.203125,228651.03125
74,290035.28125,274623.125,309869.40625,278701.6875,681874.9375,204814.765625,203736.875,228065.5
75,289996.03125,274544.25,309800.46875,278636.78125,681713.125,204813.78125,203716.40625,227989.234375
76,290136.21875,275138.09375,310246.96875,279177.0625,682223.75,205077.53125,204223.078125,228518.796875
77,289997.53125,275279.53125,310354.34375,279353.71875,682407.125,205034.796875,204338.046875,228683.84375
78,289893.5625,274845.65625,310079.15625,279036.34375,682089.6875,204846.953125,204017.34375,228357.6875
79,289967.21875,274506.34375,309866.53125,278758.53125,681764.375,204797.59375,203780.59375,228066.125
80,289989.75,274654.5,309872.53125,278746.21875,681719.375,204860.359375,203830.390625,228073.90625
81,290052.53125,275245.75,310283.90625,279283.71875,682221.5625,205091.484375,204301.125,228585.40625
82,289963.5625,275297.96875,310401.8125,279467.09375,682480.0625,205106.5,204453.46875,228801.765625
83,289861.5625,274830.4375,310120.28125,279122.78125,682221.6875,204884.6875,204148.859375,228496.53125
84,289800.84375,274354.53125,309761.75,278667.09375,681763.4375,204647.125,203759.3125,228051.46875
85,289971.25,274641.53125,309926.25,278808.6875,681857.0,204907.03125,203953.78125,228203.8125
86,290234.09375,275385.9375,310423.46875,279342.28125,682378.5,205262.96875,204460.71875,228740.078125
87,290325.125,275595.59375,310629.90625,279612.65625,682605.9375,205338.328125,204616.015625,228948.125
88,290130.75,274974.3125,310355.6875,279361.0625,682363.1875,205175.25,204340.546875,228691.53125
89,290080.6875,274621.15625,310077.4375,279026.9375,682033.9375,205033.359375,204052.578125,228381.28125
90,289933.0625,274564.1875,309933.6875,278845.34375,681918.5625,204952.453125,203982.390625,228282.21875
91,290056.625,275074.09375,310228.0,279166.0625,682205.125,205087.015625,204250.078125,228575.75
92,290059.84375,275253.53125,310285.3125,279199.9375,682167.5,205063.046875,204196.96875,228550.265625
93,290005.75,274660.5625,310052.0625,278986.96875,681863.5,204921.78125,203935.53125,228271.5
94,289867.0,274172.15625,309724.5625,278621.75,681524.75,204785.796875,203642.546875,227916.09375
95,289783.75,274078.28125,309556.84375,278395.46875,681434.5625,204683.34375,203502.8125,227714.21875
96,289934.875,274653.15625,309917.40625,278823.8125,681753.25,204859.65625,203855.25,228086.234375
97,290084.4375,274974.125,310222.46875,279195.03125,682099.625,205035.328125,204151.90625,228433.9375
98,289851.71875,274538.96875,309886.46875,278816.84375,681742.625,204774.0,203775.59375,228061.46875
99,289783.0625,274225.875,309598.59375,278463.40625,681461.25,204635.859375,203461.140625,227706.34375
100,289835.0,274219.34375,309652.21875,278522.59375,681606.0,204753.078125,203586.84375,227804.96875
101,290039.1875,274960.8125,310154.15625,279081.5625,682110.625,205116.6875,204110.421875,228367.609375
102,290221.21875,275323.96875,310507.59375,279504.03125,682536.125,205342.71875,204460.265625,228784.953125
103,290236.6875,274906.625,310329.65625,279318.40625,682298.75,205230.234375,204208.140625,228552.3125
104,290086.0625,274332.28125,309931.09375,278880.3125,681783.3125,204932.0625,203772.734375,228091.6875
105,290041.34375,274431.25,309889.59375,278819.34375,681706.625,204946.375,203779.34375,228090.359375
106,290052.6875,274824.0,310131.28125,279137.625,681973.9375,205023.4375,204032.453125,228411.140625
107,290028.28125,275006.3125,310285.84375,279350.0625,682188.75,205063.9375,204180.0625,228631.625
108,290002.09375,274612.375,310034.71875,279066.28125,681861.25,204845.078125,203867.59375,228318.25
109,289901.96875,274207.46875,309745.5625,278749.15625,681529.125,204747.890625,203582.734375,227968.21875
110,289976.0,274329.5,309765.78125,278769.90625,681542.875,204847.40625,203651.765625,227977.4375
111,290053.5,274916.09375,310126.625,279188.15625,681914.125,205051.96875,204062.578125,228400.6875
112,290108.5,275132.8125,310323.21875,279441.34375,682152.75,205110.171875,204243.8125,228631.71875
113,290010.78125,274637.6875,309997.625,279075.3125,681703.5625,204847.578125,203799.90625,228199.078125
114,289887.75,274225.34375,309689.5,278701.15625,681455.25,204729.375,203509.328125,227864.328125
115,289864.59375,274195.46875,309642.75,278647.9375,681518.6875,204750.84375,203525.34375,227841.09375
116,289974.375,274812.375,310027.84375,279100.78125,681915.5625,204978.828125,203943.5,228290.53125
117,290006.375,274999.59375,310202.8125,279329.40625,682138.875,204998.40625,204114.359375,228513.0625
118,290015.25,274588.78125,310024.6875,279123.9375,681923.5,204914.453125,203908.625,228305.109375
119,289958.375,274151.59375,309697.90625,278715.28125,681537.875,204776.328125,203568.34375,227899.296875
120,289952.46875,274135.75,309615.40625,278611.28125,681504.5625,204750.75,203513.890625,227787.0
121,290038.3125,274755.34375,309950.75,279003.78125,681798.625,204937.171875,203848.90625,228149.984375
122,289934.78125,274932.8125,310068.15625,279172.6875,681974.9375,204940.109375,203971.5625,228332.109375
123,289858.875,274351.40625,309789.90625,278877.46875,681643.8125,204764.4375,203638.796875,228011.140625
124,289925.84375,274034.53125,309618.625,278668.40625,681451.8125,204758.96875,203448.8125,227775.46875
125,289935.03125,274102.59375,309587.15625,278601.0,681510.5625,204814.046875,203467.3125,227740.140625
126,290058.59375,274758.375,310007.34375,279095.59375,681947.0,205074.5,203941.4375,228235.375
127,290145.5,274972.34375,310232.3125,279396.28125,682207.1875,205129.65625,204156.28125,228505.5625
128,289955.875,274506.4375,309892.5625,278992.78125,681806.375,204892.90625,203760.84375,228120.390625
129,289898.46875,274045.71875,309606.28125,278678.625,681523.6875,204754.59375,203480.90625,227795.765625
130,290025.0625,274216.65625,309667.78125,278748.0,681572.75,204819.59375,203553.234375,227848.6875
131,290061.375,274831.6875,309964.96875,279101.5,681795.8125,204975.609375,203818.140625,228158.21875
132,290041.875,274922.28125,310062.15625,279250.5625,681851.4375,204946.015625,203858.640625,228255.40625
133,289977.5,274420.53125,309814.3125,278980.0,681524.6875,204791.078125,203562.171875,227956.6875
134,289877.09375,274018.625,309562.09375,278697.03125,681364.1875,204672.515625,203355.828125,227701.96875
135,289975.8125,274206.375,309600.8125,278754.15625,681435.625,204735.90625,203399.90625,227698.21875
136,290070.5,274810.96875,309999.75,279254.5625,681884.5,204969.796875,203882.34375,228200.328125
137,289873.0,275007.03125,310061.0,279348.8125,682032.5,204918.921875,203973.453125,228341.765625
138,289700.25,274388.78125,309728.0625,279004.15625,681713.3125,204654.90625,203633.4375,228019.453125
139,289809.5,274133.25,309562.03125,278761.03125,681428.125,204628.984375,203424.75,227777.15625
140,289973.84375,274359.1875,309726.875,278897.75,681554.6875,204878.6875,203641.203125,227955.53125
141,290164.0,275019.375,310192.6875,279462.09375,682043.25,205180.890625,204135.8125,228486.96875
142,290229.625,275365.1875,310482.65625,279810.15625,682426.5,205357.015625,204449.1875,228856.484375
143,290142.46875,274902.40625,310247.9375,279568.9375,682195.375,205155.5,204192.21875,228618.21875
144,290052.34375,274357.65625,309885.59375,279158.28125,681732.8125,204950.390625,203808.84375,228201.390625
145,289986.71875,274393.4375,309786.96875,279000.375,681569.1875,204938.328125,203730.265625,228096.703125
146,290169.375,275070.875,310234.28125,279541.125,682018.0,205220.40625,204171.390625,228590.765625
147,290097.75,275191.21875,310383.65625,279752.125,682294.75,205203.59375,204344.671875,228852.015625
148,289988.25,274803.34375,310133.34375,279466.1875,682027.1875,205025.234375,204035.9375,228572.796875
149,289862.09375,274273.71875,309838.8125,279147.28125,681712.9375,204938.0625,203781.40625,228281.953125
150,289902.21875,274225.78125,309733.40625,278970.625,681535.0,204855.265625,203700.046875,228146.765625
151,290007.71875,274763.65625,309982.40625,279242.0625,681665.625,204952.1875,203884.9375,228340.78125
152,290048.59375,274869.34375,310100.15625,279395.84375,681716.5,204945.5625,203930.4375,228424.015625
153,290107.34375,274631.53125,310032.84375,279333.4375,681602.25,204928.046875,203810.28125,228307.96875
154,289972.6875,274226.6875,309693.1875,278926.71875,681342.6875,204758.078125,203458.734375,227911.09375
155,289858.40625,274242.40625,309597.875,278802.09375,681362.5,204761.125,203440.140625,227843.234375
156,290024.0,274881.125,310021.75,279300.875,681777.5,205032.5625,203891.734375,228309.40625
157,290070.3125,275164.46875,310283.1875,279631.4375,682099.4375,205153.078125,204161.015625,228621.515625
158,289903.03125,274714.65625,310008.96875,279319.65625,681848.5625,204956.828125,203886.09375,228349.71875
159,289766.15625,274078.34375,309635.0625,278919.125,681488.375,204733.578125,203525.15625,227949.890625
160,289783.3125,274094.8125,309556.3125,278828.0,681439.125,204663.046875,203454.890625,227841.53125
161,289924.75,274804.34375,309986.4375,279277.1875,681884.6875,204950.84375,203911.9375,228322.453125
162,290095.25,275172.96875,310397.625,279771.0,682396.375,205265.90625,204350.296875,228819.921875
163,289973.21875,274664.875,310098.8125,279415.25,682093.125,205027.015625,204017.34375,228506.09375
164,290039.90625,274389.9375,309859.21875,279083.34375,681693.875,204922.234375,203696.90625,228145.703125
165,290150.875,274633.3125,309970.6875,279186.96875,681720.0,205109.09375,203824.765625,228235.90625
166,290171.34375,275314.6875,310436.0625,279765.0,682349.375,205442.3125,204413.78125,228855.59375
167,290083.375,275397.28125,310535.9375,279912.4375,682608.8125,205365.953125,204536.4375,229045.21875
168,290102.15625,274932.8125,310265.5625,279581.25,682228.125,205166.140625,204122.9375,228646.5625
169,289970.1875,274353.5625,309862.6875,279117.875,681696.875,204906.59375,203670.796875,228148.015625
170,289950.40625,274333.15625,309809.78125,279046.25,681600.8125,204906.3125,203672.0625,228097.234375
171,290047.78125,274886.6875,310165.6875,279476.65625,681959.6875,205093.984375,204041.578125,228487.859375
172,290066.46875,275108.9375,310210.03125,279481.21875,681890.625,205036.40625,203966.46875,228429.75
173,290023.28125,274779.40625,310079.15625,279347.375,681717.875,204998.5,203819.390625,228261.5625
174,289821.21875,274361.34375,309771.6875,278997.09375,681466.8125,204867.6875,203580.328125,227963.9375
175,289816.65625,274227.40625,309684.40625,278896.84375,681496.9375,204853.75,203579.15625,227909.578125
176,290042.6875,274973.9375,310150.0625,279419.96875,681935.375,205127.15625,204039.96875,228387.625
177,290018.46875,275187.8125,310335.3125,279680.78125,682200.3125,205207.703125,204231.921875,228626.96875
178,289880.15625,274747.03125,310021.125,279306.15625,681850.625,204958.890625,203858.296875,228257.453125
179,289788.25,274283.0,309723.03125,278943.875,681524.8125,204837.46875,203574.328125,227921.28125
180,289853.6875,274177.78125,309644.375,278824.4375,681467.875,204805.828125,203498.421875,227797.015625
181,290027.65625,274918.0625,310134.59375,279369.5625,681979.75,205148.078125,204018.6875,228330.59375
182,290181.09375,275320.65625,310458.875,279752.75,682357.125,205314.109375,204331.609375,228689.375
183,290116.53125,274907.4375,310241.25,279514.9375,682087.375,205170.78125,204052.921875,228421.703125
184,289884.625,274372.25,309844.1875,279050.1875,681673.9375,204965.78125,203706.921875,228027.859375
185,289969.46875,274399.15625,309836.5,279013.8125,681597.0625,205006.984375,203726.328125,227996.828125
186,290092.65625,275047.09375,310231.3125,279477.1875,681990.125,205267.171875,204121.5,228424.734375
187,290057.96875,275211.9375,310358.0,279655.5625,682183.6875,205190.640625,204233.984375,228589.78125
188,289925.84375,274839.03125,310128.0625,279389.5625,681933.6875,205025.046875,203954.765625,228319.859375
189,289904.46875,274409.59375,309853.40625,279054.65625,681582.75,204892.1875,203640.3125,227964.203125
190,289931.71875,274390.21875,309741.0,278871.90625,681394.125,204836.21875,203491.28125,227764.90625
191,289978.84375,274975.5625,310079.875,279303.3125,681710.6875,205014.140625,203852.484375,228136.125
192,289961.6875,275244.65625,310379.375,279715.03125,682170.5625,205171.328125,204229.78125,228562.953125
193,289832.9375,274786.625,310118.03125,279437.84375,681933.5,204944.40625,203945.1875,228296.796875
194,289832.59375,274457.0,309881.375,279108.5625,681640.6875,204901.484375,203713.546875,228019.90625
195,289950.15625,274612.28125,309942.4375,279157.125,681652.3125,204994.65625,203810.1875,228074.703125
196,290177.78125,275337.84375,310456.4375,279762.125,682204.25,205332.171875,204343.0625,228645.03125
197,290251.71875,275699.46875,310739.875,280110.375,682597.1875,205447.046875,204626.921875,228987.90625
198,289991.46875,275227.5,310427.65625,279767.9375,682336.8125,205212.53125,204303.359375,228682.578125
199,289925.5625,274805.21875,310121.875,279385.65625,681989.6875,205053.84375,203987.84375,228333.265625
200,290068.4375,274828.375,310166.59375,279413.71875,682004.4375,205190.0,204066.875,228377.703125
201,290096.875,275382.71875,310549.6875,279884.4375,682509.1875,205424.96875,204508.09375,228861.21875
202,290122.09375,275660.59375,310796.46875,280223.5625,682899.5,205474.765625,204747.53125,229179.421875
203,289901.0625,275080.4375,310474.59375,279873.96875,682657.6875,205261.0,204419.5,228880.0
204,289910.09375,274581.71875,310081.75,279343.875,682128.125,204979.984375,203936.15625,228362.953125
205,289977.15625,274657.8125,310089.625,279349.25,682067.8125,205049.109375,203959.234375,228346.953125
206,290056.1875,275188.4375,310408.78125,279733.4375,682389.375,205218.703125,204270.71875,228679.1875
207,290024.09375,275443.5,310560.875,279927.53125,682571.6875,205249.828125,204392.9375,228841.640625
208,289890.875,275010.78125,310326.53125,279655.5625,682381.4375,205129.203125,204165.40625,228621.078125
209,289804.59375,274495.4375,309986.78125,279250.28125,681981.0625,204945.296875,203811.796875,228230.1875
210,289905.96875,274537.5625,309929.40625,279155.6875,681822.125,204927.515625,203742.0625,228116.8125
211,289981.1875,275127.28125,310267.53125,279559.53125,682155.5,205133.234375,204078.140625,228472.390625
212,289860.9375,275308.3125,310463.6875,279867.71875,682545.75,205217.71875,204364.25,228805.25
213,289848.0625,274930.3125,310262.0625,279629.8125,682349.0,205061.53125,204118.109375,228564.484375
214,289876.75,274471.21875,309996.4375,279294.8125,681990.75,204957.453125,203820.734375,228224.546875
215,289932.1875,274590.84375,310004.3125,279283.8125,681921.25,205069.75,203848.71875,228205.328125
216,290068.875,275173.84375,310389.5625,279716.09375,682372.125,205343.078125,204286.8125,228660.5
217,290253.25,275647.0,310728.59375,280069.53125,682776.6875,205494.703125,204588.828125,229015.53125
218,289922.78125,275035.28125,310389.40625,279769.03125,682522.625,205255.984375,204286.109375,228728.453125
219,289921.71875,274511.875,310047.6875,279313.84375,682081.75,205059.46875,203906.125,228303.046875
220,290002.28125,274616.0625,310021.46875,279243.125,681942.8125,205167.828125,203873.046875,228212.3125
221,289957.21875,275144.25,310415.0625,279780.90625,682537.0,205426.046875,204423.515625,228785.671875
222,290022.65625,275446.28125,310677.46875,280100.09375,682974.1875,205501.140625,204706.765625,229143.203125
223,289960.96875,274784.5,310243.5625,279568.5625,682411.5625,205111.0625,204113.1875,228574.578125
224,289838.125,274121.375,309702.5625,278887.65625,681635.6875,204763.625,203447.828125,227837.6875
225,289867.375,274161.0625,309589.8125,278708.28125,681393.3125,204784.015625,203292.25,227593.34375
226,290059.21875,274842.6875,310105.25,279335.65625,681913.375,205173.734375,203869.734375,228175.375
227,290045.8125,275147.21875,310370.96875,279687.03125,682292.0625,205264.03125,204195.53125,228535.15625
228,289944.875,274722.875,310157.125,279476.9375,682106.25,205164.078125,203997.59375,228329.515625
229,289761.15625,274153.8125,309708.125,278938.53125,681579.0,204882.09375,203543.21875,227821.953125
230,289668.34375,274037.5,309498.90625,278696.0625,681321.8125,204748.34375,203344.203125,227572.328125
231,289726.0,274560.25,309771.84375,279028.0,681619.0,204841.140625,203643.359375,227888.109375
232,290052.6875,275206.65625,310326.1875,279641.625,682225.9375,205254.734375,204199.46875,228486.96875
233,290189.125,274957.40625,310318.3125,279608.8125,682220.25,205339.5,204178.015625,228475.4375
234,290060.3125,274385.125,309968.5625,279217.65625,681825.5,205192.0625,203861.953125,228115.921875
235,290084.96875,274287.375,309807.875,278990.28125,681514.9375,205123.84375,203680.546875,227890.625
236,290084.53125,274741.125,310067.25,279325.75,681746.625,205240.96875,203957.890625,228187.984375
237,290056.8125,275055.03125,310288.375,279607.90625,682048.5625,205319.640625,204204.828125,228483.65625
238,289917.15625,274589.3125,309978.5625,279241.96875,681698.9375,205089.328125,203841.84375,228127.28125
239,289868.25,274173.125,309674.5,278866.71875,681418.8125,204950.75,203520.0625,227751.140625
240,289887.84375,274164.8125,309649.09375,278839.71875,681502.1875,205004.046875,203572.015625,227755.34375
241,290050.1875,274694.1875,310021.21875,279283.90625,681851.625,205211.546875,203951.90625,228157.953125
242,290039.46875,274910.1875,310177.3125,279495.25,682021.375,205218.96875,204073.21875,228324.515625
243,289889.53125,274285.40625,309693.53125,278883.4375,681409.25,204852.234375,203433.609375,227662.71875
244,289944.53125,273741.1875,309329.75,278409.84375,681004.375,204662.5,202974.5,227115.28125
245,289965.25,273996.46875,309411.0,278498.09375,681167.0,204802.96875,203115.40625,227178.3125
246,289969.375,274606.9375,309784.5625,278966.9375,681576.625,205068.328125,203567.71875,227628.65625
247,290051.90625,274854.125,310047.0625,279297.84375,681859.375,205199.125,203841.125,227942.390625
248,290051.375,274607.03125,309890.21875,279102.9375,681639.5625,205074.5,203629.40625,227737.109375
249,289868.4375,274023.90625,309513.03125,278701.84375,681312.5,204901.9375,203259.984375,227315.109375
250,289723.15625,273758.53125,309269.375,278415.9375,681216.8125,204745.296875,203089.296875,227077.015625
251,289780.0,274267.90625,309550.9375,278740.46875,681504.25,204859.921875,203392.03125,227385.109375
252,289823.8125,274611.75,309807.875,279055.1875,681760.0625,204945.921875,203637.1875,227672.828125
253,289846.34375,274410.21875,309719.46875,278925.5625,681611.5625,204905.96875,203504.6875,227540.859375
254,289957.9375,274136.90625,309599.03125,278711.875,681428.8125,204990.890625,203381.296875,227359.546875
255,290047.78125,274077.28125,309567.28125,278665.5625,681419.25,205027.5625,203372.359375,227309.921875
256,290039.75,274581.28125,309793.0625,278948.09375,681595.125,205129.203125,203589.890625,227551.5
257,290157.75,275066.03125,310143.25,279354.09375,681961.3125,205364.4375,203932.046875,227936.484375
258,290005.9375,274688.03125,309976.34375,279208.875,681845.625,205214.5,203788.828125,227804.34375
259,289815.0625,274040.8125,309550.40625,278725.71875,681476.4375,204908.828125,203375.671875,227355.96875
260,289873.625,274057.25,309528.84375,278671.90625,681488.8125,204975.15625,203392.21875,227324.5
261,290036.875,274554.71875,309789.125,278959.4375,681584.375,205070.46875,203575.578125,227523.328125
262,290014.0625,274835.09375,309915.96875,279112.59375,681592.0625,205074.046875,203614.484375,227594.0625
263,289928.78125,274521.71875,309749.15625,278921.09375,681400.0,204974.0,203438.25,227401.5625
264,289886.3125,274050.375,309501.3125,278651.78125,681253.5,204858.3125,203213.046875,227116.71875
265,289952.21875,274043.125,309448.46875,278585.71875,681240.375,204862.15625,203177.09375,227017.015625
266,290006.65625,274804.59375,309849.5625,279049.5625,681629.875,205121.875,203625.109375,227473.53125
267,289915.09375,275026.25,310069.5,279336.125,681980.625,205213.078125,203930.078125,227826.78125
268,289823.1875,274558.1875,309859.5625,279120.65625,681788.5,205018.796875,203712.109375,227626.6875
269,289671.1875,274047.6875,309471.0,278658.6875,681387.25,204774.4375,203306.015625,227184.75
270,289776.78125,274103.125,309450.875,278603.59375,681365.8125,204840.6875,203273.5625,227112.78125
271,290043.5,274911.8125,310014.40625,279230.96875,681923.3125,205272.0,203875.546875,227731.5625
272,290126.1875,275376.1875,310374.8125,279649.21875,682381.875,205474.40625,204266.34375,228174.9375
273,289904.8125,274697.84375,309995.5625,279258.40625,682005.0625,205122.765625,203858.015625,227788.6875
274,289867.53125,274208.625,309672.09375,278857.25,681548.8125,204947.265625,203488.59375,227375.90625
275,289973.3125,274304.71875,309699.09375,278848.84375,681467.6875,205084.234375,203532.40625,227369.828125
276,290023.65625,274932.375,310067.875,279295.6875,681871.8125,205339.765625,203960.484375,227818.109375
277,290034.71875,275261.65625,310335.84375,279639.90625,682282.3125,205415.046875,204277.15625,228191.65625
278,289927.8125,274735.125,310041.25,279303.75,681971.0625,205153.53125,203924.453125,227858.515625
279,289873.15625,274227.9375,309664.75,278824.4375,681488.0625,204906.765625,203465.796875,227360.609375
280,289861.28125,274118.0625,309511.6875,278619.6875,681341.625,204844.265625,203290.46875,227128.515625
281,289980.90625,274729.3125,309903.28125,279088.375,681706.875,205118.921875,203701.828125,227549.0
282,290000.5,275195.40625,310221.5625,279466.8125,682111.8125,205309.1875,204056.0625,227946.9375
283,289965.25,274732.09375,309935.375,279113.21875,681717.0,205041.40625,203666.421875,227555.609375
284,289847.875,274216.9375,309566.21875,278668.6875,681310.5,204876.28125,203271.25,227094.984375
285,289824.625,274068.875,309490.6875,278593.59375,681355.25,204928.765625,203288.671875,227047.15625
286,289927.34375,274634.8125,309879.9375,279072.1875,681755.4375,205170.34375,203725.34375,227500.53125
287,290014.25,275007.5625,310145.125,279389.5625,682044.125,205261.71875,203968.890625,227795.671875
288,289862.8125,274556.6875,309857.59375,279071.28125,681720.5625,205012.265625,203639.328125,227464.59375
289,289741.125,274015.3125,309448.65625,278569.53125,681310.375,204765.5,203189.703125,226960.78125
290,289777.59375,274036.25,309404.65625,278483.53125,681308.5625,204811.640625,203161.71875,226881.390625
291,289945.3125,274639.84375,309823.09375,278979.65625,681686.3125,205096.21875,203593.640625,227334.328125
292,290150.34375,275216.0625,310246.34375,279437.15625,682138.8125,205374.1875,204012.515625,227792.09375
293,290111.625,274834.90625,310098.375,279260.28125,681968.5625,205307.3125,203845.953125,227626.515625
294,290055.03125,274351.6875,309816.84375,278956.84375,681593.25,205187.140625,203558.59375,227279.703125
295,290014.25,274329.9375,309731.8125,278853.9375,681479.0625,205169.625,203519.265625,227198.25
296,290038.5625,274834.75,309985.4375,279138.0,681722.8125,205289.96875,203785.6875,227492.578125
297,289928.25,274879.71875,310013.34375,279198.875,681762.5625,205184.46875,203788.546875,227543.984375
298,289892.84375,274403.78125,309768.71875,278901.59375,681469.75,205001.453125,203460.96875,227221.234375
299,289879.15625,273926.4375,309414.78125,278468.0625,681087.5625,204812.078125,203002.125,226706.0625
300,289847.78125,273899.53125,309260.375,278226.40625,680981.25,204776.046875,202873.203125,226489.609375
301,289983.78125,274483.5625,309668.3125,278707.65625,681405.8125,205035.15625,203320.0625,226933.515625
302,289997.53125,274793.4375,309939.5,279062.15625,681700.0,205177.484375,203625.828125,227276.65625
303,289878.71875,274402.09375,309690.21875,278768.65625,681443.3125,205000.46875,203341.875,226988.5
304,289787.78125,273953.375,309352.8125,278346.09375,681208.25,204810.921875,202992.46875,226582.140625
305,289844.84375,273901.5,309318.28125,278299.15625,681266.25,204870.828125,203013.21875,226540.84375
306,289921.53125,274446.90625,309629.15625,278665.5625,681522.4375,205058.3125,203334.71875,226872.0
307,289962.03125,274834.1875,309887.46875,278970.15625,681777.0625,205169.625,203595.171875,227172.59375
308,289932.34375,274465.84375,309720.8125,278777.0625,681574.25,205056.796875,203386.84375,226966.234375
309,289896.25,274030.15625,309438.46875,278415.5,681356.375,204942.796875,203090.1875,226619.34375
310,289990.21875,274128.78125,309499.78125,278463.6875,681445.5625,205097.828125,203213.671875,226681.03125
311,290075.5,274644.46875,309824.96875,278873.875,681718.9375,205275.5625,203566.828125,227051.796875
312,290056.28125,274912.0,310040.53125,279163.5625,681974.375,205326.890625,203789.625,227333.875
313,289975.90625,274567.40625,309851.25,278947.375,681766.3125,205190.640625,203575.578125,227133.609375
314,289898.375,274065.75,309501.3125,278520.0,681395.9375,205013.421875,203196.328125,226703.03125
315,289851.53125,273885.15625,309286.1875,278255.90625,681217.5625,204889.59375,202967.625,226407.359375
316,289978.40625,274440.375,309612.71875,278636.9375,681488.875,205088.53125,203283.765625,226728.15625
317,290003.71875,274776.625,309870.125,278962.75,681725.625,205191.265625,203544.65625,227030.875
318,289913.40625,274389.21875,309651.25,278715.90625,681460.1875,205039.359375,203283.21875,226771.15625
319,289864.78125,273954.25,309356.65625,278349.78125,681219.25,204902.03125,202966.71875,226403.328125
320,289880.40625,273942.0,309309.71875,278295.25,681246.0,204930.8125,202981.46875,226352.734375
321,290012.03125,274557.75,309714.46875,278785.1875,681634.875,205183.84375,203437.984375,226815.046875
322,290071.46875,274950.625,310018.4375,279173.03125,681955.6875,205319.5625,203744.46875,227172.140625
323,289965.0,274568.03125,309802.25,278939.40625,681713.9375,205147.09375,203515.953125,226949.34375
324,289868.78125,274087.21875,309454.90625,278496.03125,681358.0625,204976.328125,203161.28125,226546.203125
325,289879.96875,274018.0,309382.65625,278411.1875,681345.9375,204970.6875,203125.328125,226462.875
326,290007.46875,274544.625,309730.46875,278837.84375,681637.75,205156.84375,203486.265625,226846.875
327,290018.28125,274893.21875,309977.6875,279144.5,681910.6875,205251.703125,203726.859375,227150.953125
328,289899.53125,274509.9375,309736.71875,278858.84375,681613.0,205112.046875,203432.984375,226880.859375
329,289836.34375,274068.15625,309466.34375,278545.3125,681351.1875,204980.34375,203169.671875,226573.203125
330,289963.03125,274154.71875,309520.34375,278568.71875,681428.375,205093.71875,203281.53125,226637.578125
331,290171.25,274828.125,309973.46875,279079.34375,681841.875,205394.125,203750.375,227145.6875
332,290244.125,275237.6875,310269.3125,279446.71875,682167.875,205466.28125,204010.1875,227487.296875
333,290057.96875,274846.90625,310031.5,279197.34375,681925.625,205282.71875,203741.4375,227255.375
334,289900.25,274239.03125,309644.625,278745.125,681497.5,205065.015625,203351.984375,226849.03125
335,289973.84375,274213.375,309602.6875,278671.375,681392.8125,205097.375,203316.484375,226782.859375
336,290117.875,274768.21875,309938.5,279062.15625,681639.5625,205290.046875,203617.609375,227117.25
337,290103.84375,275135.78125,310211.46875,279414.25,681960.0,205407.984375,203887.34375,227451.1875
338,290019.25,274714.84375,309978.75,279149.59375,681671.3125,205210.578125,203599.015625,227174.921875
339,290005.5,274287.375,309687.375,278769.09375,681327.0625,205065.015625,203265.25,226795.203125
340,289963.28125,274266.75,309614.0625,278690.25,681323.25,205072.609375,203267.046875,226741.734375
341,289967.0625,274779.75,309901.3125,279061.0,681645.25,205216.296875,203619.03125,227116.984375
342,289880.3125,275067.90625,310104.625,279361.6875,681939.625,205250.796875,203844.703125,227413.0
343,289836.5,274746.6875,309957.5625,279194.59375,681801.125,205160.0625,203680.640625,227266.5625
344,290108.59375,274615.15625,309987.0625,279144.96875,681761.875,205341.015625,203721.3125,227260.390625
345,290266.28125,274719.9375,310043.84375,279179.90625,681733.6875,205448.390625,203807.15625,227305.8125
346,290374.84375,275280.15625,310406.125,279629.625,682103.5,205657.875,204189.8125,227726.28125
347,290397.0,275662.65625,310696.3125,279990.46875,682503.9375,205799.859375,204493.265625,228110.109375
348,290297.84375,275263.625,310482.5625,279749.4375,682294.75,205618.171875,204229.421875,227890.4375
349,290160.96875,274723.875,310097.65625,279282.1875,681830.0625,205399.40625,203816.8125,227457.625
350,290139.59375,274648.875,309999.03125,279155.5,681690.5,205372.671875,203767.71875,227376.0
351,290246.90625,275206.21875,310357.5625,279584.5625,682081.6875,205578.390625,204160.03125,227791.828125
352,290278.8125,275569.125,310644.03125,279948.0,682463.625,205701.421875,204445.515625,228142.5625
353,290157.75,275143.09375,310404.84375,279685.59375,682237.0625,205489.078125,204172.015625,227891.15625
354,290067.90625,274591.0,310010.03125,279188.3125,681731.75,205259.46875,203734.46875,227412.203125
355,290105.09375,274522.53125,309914.1875,279047.78125,681517.3125,205262.421875,203638.96875,227268.34375
356,290224.09375,275087.21875,310264.65625,279467.375,681839.9375,205482.8125,203993.03125,227636.96875
357,290235.0,275462.5625,310537.375,279805.21875,682201.9375,205608.703125,204280.296875,227976.984375
358,290118.15625,275019.8125,310299.09375,279521.0,681967.0625,205449.828125,204010.90625,227722.265625
359,290007.46875,274486.5,309903.8125,279034.1875,681474.6875,205266.984375,203578.71875,227240.0
360,290009.78125,274391.8125,309779.46875,278874.59375,681349.4375,205231.140625,203478.125,227082.828125
361,290147.375,274935.21875,310116.25,279272.375,681644.4375,205427.296875,203805.71875,227430.0
362,290107.15625,275236.09375,310343.15625,279579.46875,681945.875,205443.125,204040.859375,227721.640625
363,289901.59375,274745.78125,310044.625,279262.53125,681664.0625,205185.984375,203725.078125,227414.34375
364,289869.59375,274289.0,309744.78125,278869.6875,681343.875,205066.359375,203404.546875,227043.484375
365,290053.40625,274411.3125,309812.625,278872.8125,681411.1875,205244.28125,203492.796875,227076.390625
366,290352.9375,275169.125,310346.375,279474.96875,681919.0625,205634.8125,204046.765625,227646.625
367,290449.84375,275642.875,310740.3125,279960.875,682413.875,205884.4375,204465.546875,228127.1875
368,290233.65625,275192.8125,310436.5,279619.875,682126.25,205646.25,204144.84375,227823.390625
369,290128.25,274669.34375,310107.40625,279228.8125,681778.125,205435.15625,203832.625,227481.671875
370,290100.625,274508.3125,309944.875,279029.90625,681526.875,205345.671875,203673.84375,227288.015625
371,290169.375,274927.28125,310161.5,279284.0625,681644.0,205439.453125,203837.546875,227475.953125
372,290151.0625,275106.09375,310246.96875,279391.625,681612.375,205381.78125,203820.65625,227494.71875
373,290065.21875,274763.75,310057.5,279188.3125,681348.1875,205245.53125,203591.59375,227248.140625
374,290027.5,274392.8125,309840.34375,278930.21875,681235.25,205177.3125,203404.015625,227002.1875
375,290031.96875,274362.59375,309779.0,278855.0,681288.6875,205200.015625,203405.71875,226942.453125
376,290097.59375,274905.46875,310104.09375,279261.90625,681616.5625,205381.421875,203777.109375,227330.125
377,290060.84375,275245.90625,310337.53125,279571.4375,681939.625,205449.90625,204025.484375,227642.328125
378,289970.4375,274893.65625,310144.0625,279354.71875,681761.25,205300.15625,203799.28125,227444.921875
379,290001.90625,274525.21875,309926.09375,279057.59375,681460.5625,205258.9375,203564.671875,227171.78125
380,290141.46875,274600.75,309975.25,279074.40625,681441.0625,205404.671875,203666.25,227216.578125
381,290266.375,275157.21875,310332.96875,279492.03125,681808.4375,205630.25,204059.90625,227621.140625
382,290235.71875,275451.28125,310543.53125,279767.5,682089.375,205669.40625,204267.421875,227889.28125
383,290209.34375,275119.9375,310390.46875,279580.90625,681922.9375,205555.0625,204068.671875,227714.9375
384,290148.8125,274626.34375,310058.84375,279169.1875,681511.875,205393.140625,203698.96875,227310.8125
385,290124.40625,274489.53125,309892.125,278962.5625,681360.125,205322.15625,203540.890625,227101.328125
386,290233.46875,275018.375,310219.34375,279357.125,681660.125,205534.21875,203883.6875,227455.125
387,290251.8125,275372.25,310494.4375,279711.8125,681998.9375,205636.859375,204179.0,227796.109375
388,290121.625,274929.6875,310238.5625,279430.71875,681743.375,205417.015625,203907.828125,227528.609375
389,290029.8125,274366.6875,309849.09375,278953.625,681346.1875,205196.53125,203487.96875,227052.078125
390,290052.625,274251.34375,309713.75,278769.4375,681277.0,205171.234375,203355.828125,226852.875
391,290176.09375,274759.5625,310016.125,279116.78125,681519.75,205364.796875,203653.640625,227152.125
392,290247.25,275133.71875,310298.5625,279454.03125,681790.1875,205506.234375,203914.96875,227454.3125
393,290157.40625,274745.5,310087.90625,279213.4375,681546.8125,205369.71875,203659.984375,227204.6875
394,290050.8125,274180.09375,309695.0625,278737.875,681198.4375,205145.484375,203239.234375,226727.875
395,290101.875,274088.46875,309583.125,278584.1875,681155.9375,205122.59375,203142.140625,226551.84375
396,290205.3125,274594.15625,309878.4375,278922.875,681423.0625,205310.078125,203444.96875,226841.34375
397,290223.5625,274946.6875,310131.71875,279232.5,681656.25,205425.234375,203708.53125,227127.078125
398,290141.9375,274594.40625,309950.125,279030.96875,681471.0,205284.78125,203524.171875,226926.359375
399,290071.9375,274066.03125,309586.59375,278581.34375,681158.6875,205086.75,203135.703125,226462.796875
400,290095.34375,273938.4375,309431.65625,278373.28125,681028.6875,205039.53125,202969.3125,226219.15625
401,290190.9375,274420.96875,309701.40625,278684.59375,681259.5625,205188.9375,203213.578125,226458.859375
402,290189.5,274729.25,309898.1875,278928.5,681364.8125,205247.671875,203367.71875,226642.046875
403,290085.25,274380.5625,309710.78125,278717.59375,681213.1875,205119.203125,203156.265625,226430.15625
404,289978.03125,273843.3125,309343.6875,278289.25,680949.0625,204892.640625,202785.765625,225996.53125
405,289972.0625,273717.96875,309181.15625,278080.5625,680820.875,204832.203125,202628.140625,225766.84375
406,290063.78125,274222.03125,309472.96875,278419.0625,681136.625,205008.515625,202918.890625,226047.671875
407,290116.09375,274635.1875,309781.59375,278795.1875,681407.5625,205166.140625,203236.109375,226394.484375
408,290185.125,274434.09375,309735.375,278718.21875,681332.5,205180.796875,203161.984375,226312.671875
409,290206.46875,274020.96875,309477.0,278379.0,681109.1875,205088.53125,202873.203125,225957.109375
410,290262.90625,273992.4375,309415.3125,278279.0625,681090.5625,205128.859375,202843.515625,225847.9375
411,290361.0625,274551.9375,309764.25,278690.0625,681445.0625,205353.359375,203231.71875,226227.296875
412,290320.375,274892.6875,310011.90625,279012.28125,681705.8125,205423.984375,203513.625,226550.765625
413,290207.46875,274425.875,309747.71875,278710.53125,681424.375,205200.109375,203194.359375,226238.28125
414,290125.5625,273833.125,309325.34375,278188.84375,681000.125,204947.0,202705.125,225687.359375
415,290107.25,273610.9375,309091.1875,277884.78125,680721.3125,204822.71875,202451.921875,225340.734375
416,290232.40625,274071.65625,309358.96875,278179.28125,681006.375,204994.390625,202701.453125,225559.0625
417,290276.65625,274336.03125,309538.59375,278378.21875,681186.4375,205042.578125,202824.65625,225683.15625
418,290183.78125,273906.15625,309274.5,278068.40625,680919.125,204875.03125,202505.5625,225323.5625
419,290084.4375,273388.75,308908.46875,277632.09375,680529.8125,204718.203125,202140.25,224863.03125
420,290042.875,273240.0,308729.28125,277413.3125,680337.3125,204678.515625,202010.6875,224630.578125
421,290120.375,273707.84375,308989.71875,277720.71875,680662.0625,204846.859375,202302.875,224886.28125
422,290058.875,273960.96875,309140.46875,277920.875,680938.625,204851.78125,202453.34375,225045.59375
423,289944.96875,273559.34375,308894.25,277644.25,680741.4375,204674.046875,202176.90625,224752.4375
424,290144.4375,273336.28125,308813.59375,277483.6875,680622.625,204775.703125,202079.359375,224585.0625
425,290366.0625,273444.0,308880.65625,277497.625,680640.875,204962.375,202167.15625,224589.53125
426,290470.3125,273977.0625,309183.5625,277848.90625,680966.3125,205163.453125,202482.9375,224890.5625
427,290460.9375,274359.4375,309438.28125,278177.65625,681278.625,205258.140625,202749.90625,225187.9375
428,290323.59375,273983.6875,309210.375,277943.59375,681098.625,205047.046875,202501.453125,224940.90625
429,290205.0625,273454.75,308824.59375,277496.5625,680673.5625,204803.234375,202077.578125,224473.21875
430,290206.03125,273398.40625,308719.28125,277370.59375,680538.0625,204783.828125,202004.609375,224330.25
431,290338.34375,274021.9375,309115.78125,277855.1875,680983.5625,205022.375,202455.046875,224772.546875
432,290369.46875,274513.78125,309471.625,278309.375,681313.75,205196.53125,202844.234375,225208.671875
433,290279.34375,274292.5,309379.09375,278234.875,681256.5,205107.03125,202756.171875,225145.640625
434,290247.34375,273969.625,309192.0625,278016.03125,681185.6875,205007.078125,202586.296875,224950.46875
435,290276.65625,273963.03125,309147.71875,277954.40625,681198.5625,204996.703125,202580.9375,224906.484375
436,290404.59375,274495.875,309465.5625,278318.40625,681400.9375,205154.515625,202878.03125,225221.015625
437,290471.46875,274983.59375,309826.5625,278759.625,681683.8125,205322.59375,203226.625,225631.125
438,290407.65625,274789.0625,309782.59375,278736.0,681590.9375,205277.171875,203177.015625,225632.28125
439,290335.0625,274411.65625,309552.375,278469.3125,681303.1875,205150.9375,202952.15625,225400.453125
440,290323.5,274367.59375,309483.4375,278386.6875,681252.3125,205114.1875,202931.859375,225348.328125
441,290420.0,274941.59375,309862.0625,278840.8125,681606.9375,205312.140625,203356.1875,225801.71875
442,290460.84375,275418.46875,310238.84375,279303.75,682052.875,205467.265625,203752.171875,226286.296875
443,290403.90625,275189.0625,310166.3125,279236.0625,682002.625,205378.03125,203666.6875,226267.875
444,290331.5625,274752.65625,309904.8125,278928.6875,681675.75,205208.6875,203397.84375,226009.3125
445,290361.59375,274718.96875,309852.9375,278847.15625,681544.3125,205218.890625,203376.921875,225973.734375
446,290619.28125,275432.4375,310368.65625,279427.5,682066.0,205596.984375,203924.984375,226563.46875
447,290699.46875,275899.9375,310752.75,279891.0625,682544.8125,205776.25,204324.546875,227049.296875
448,290551.3125,275512.625,310539.3125,279669.40625,682349.875,205548.0,204085.203125,226864.5
449,290468.53125,275043.25,310244.28125,279323.25,681996.75,205375.53125,203781.671875,226559.4375
450,290468.53125,274943.53125,310137.09375,279189.21875,681817.4375,205343.96875,203704.234375,226459.125
451,290604.25,275515.65625,310522.6875,279642.0625,682226.25,205592.34375,204128.296875,226916.171875
452,290647.53125,275932.5625,310852.78125,280051.09375,682671.8125,205741.734375,204477.875,227346.3125
453,290552.9375,275543.46875,310645.8125,279816.125,682455.8125,205543.078125,204218.421875,227131.640625
454,290502.78125,275060.84375,310340.75,279434.28125,682045.375,205381.875,203879.921875,226769.09375
455,290523.34375,274946.59375,310224.25,279275.6875,681821.75,205360.234375,203781.671875,226627.296875
456,290647.25,275473.5625,310571.59375,279680.875,682162.875,205580.8125,204160.125,227021.40625
457,290676.84375,275839.59375,310843.9375,280010.25,682483.25,205672.984375,204425.40625,227344.515625
458,290580.5625,275461.84375,310640.625,279779.84375,682255.375,205497.203125,204185.25,227126.015625
459,290519.75,274985.75,310344.40625,279415.9375,681869.75,205357.734375,203876.0,226785.546875
460,290556.5,274907.5,310259.21875,279289.625,681698.625,205374.625,203824.046875,226687.921875
461,290657.09375,275404.875,310561.21875,279637.3125,681986.6875,205565.609375,204143.953125,227026.953125
462,290677.9375,275790.21875,310846.0,279984.03125,682341.1875,205673.96875,204426.203125,227379.03125
463,290605.9375,275452.4375,310678.25,279789.59375,682168.1875,205535.921875,204218.15625,227209.34375
464,290602.03125,275021.875,310406.1875,279435.09375,681785.875,205426.484375,203907.640625,226874.328125
465,290692.125,274981.625,310355.40625,279332.0,681615.6875,205481.828125,203869.640625,226787.78125
466,290846.09375,275510.5625,310701.4375,279718.5,681920.3125,205714.015625,204229.328125,227159.8125
467,290857.71875,275877.59375,310963.125,280038.65625,682218.8125,205816.75,204480.109375,227471.03125
468,290795.6875,275590.40625,310828.75,279892.3125,682078.6875,205716.171875,204314.890625,227337.640625
469,290701.71875,275078.625,310491.84375,279490.78125,681652.3125,205524.03125,203961.5625,226956.765625
470,290695.96875,274935.78125,310343.78125,279297.5625,681392.625,205460.375,203838.796875,226780.625
471,290814.53125,275405.78125,310634.53125,279625.6875,681625.625,205638.734375,204133.484375,227084.25
472,290863.09375,275792.65625,310909.125,279949.625,681901.9375,205757.390625,204382.84375,227383.0625
473,290811.9375,275497.15625,310770.90625,279791.46875,681738.6875,205659.125,204218.25,227233.828125
474,290735.40625,274948.8125,310387.78125,279321.53125,681295.5,205429.53125,203781.125,226750.765625
475,290748.65625,274844.3125,310255.625,279146.46875,681212.0,205397.703125,203661.59375,226563.46875
476,290863.4375,275356.59375,310582.0625,279529.59375,681496.5,205616.5625,204016.359375,226918.40625
477,290889.8125,275754.03125,310867.09375,279876.3125,681792.0,205737.796875,204304.4375,227251.8125
478,290748.1875,275385.65625,310640.34375,279628.75,681532.5,205559.34375,204043.359375,227010.859375
479,290574.75,274798.09375,310222.125,279143.625,681142.4375,205300.6875,203598.03125,226535.125
480,290603.625,274677.125,310101.3125,278983.9375,681100.75,205260.8125,203494.5,226381.703125
481,290842.6875,275309.03125,310532.71875,279459.21875,681492.125,205592.078125,203948.5,226829.171875
482,291026.0,275886.34375,310988.15625,279981.1875,681965.0,205879.328125,204417.265625,227339.0625
483,291088.21875,275737.03125,310986.4375,279961.96875,681943.6875,205902.578125,204399.03125,227339.25
484,290982.0,275231.875,310640.09375,279547.125,681510.875,205723.046875,204036.390625,226941.5625
485,290907.34375,275026.96875,310431.15625,279297.5,681305.1875,205598.421875,203857.390625,226708.21875
486,291015.15625,275520.40625,310725.90625,279640.09375,681537.625,205775.890625,204161.734375,227021.3125
487,291043.78125,275937.46875,311031.6875,280022.59375,681873.875,205911.796875,204471.171875,227389.9375
488,290972.4375,275657.375,310906.15625,279894.1875,681748.625,205804.859375,204327.59375,227279.609375
489,290907.53125,275180.375,310595.65625,279513.84375,681377.0625,205637.3125,203984.171875,226911.609375
490,290925.75,275063.8125,310458.875,279327.0,681270.8125,205594.484375,203853.109375,226730.46875
491,291041.4375,275523.1875,310719.03125,279622.46875,681436.875,205736.109375,204096.46875,226979.03125
492,291098.9375,275922.28125,311016.59375,279985.375,681702.5625,205866.1875,204371.671875,227303.125
493,291022.40625,275600.6875,310850.09375,279807.90625,681494.0625,205725.015625,204165.765625,227115.453125
494,290882.84375,275043.875,310452.875,279343.96875,681124.625,205469.046875,203729.359375,226639.015625
495,290858.4375,274970.375,310339.5,279199.78125,681101.5625,205452.59375,203656.671875,226509.734375
496,291010.59375,275569.40625,310731.65625,279653.3125,681484.25,205721.984375,204088.421875,226950.140625
497,291115.40625,276089.5625,311138.0,280136.21875,681942.75,205949.078125,204510.96875,227431.609375
498,291060.6875,275804.28125,311023.65625,280013.375,681821.3125,205848.671875,204376.578125,227329.234375
499,291043.875,275382.53125,310769.1875,279691.6875,681477.25,205750.859375,204106.84375,227028.375
500,291085.09375,275321.90625,310683.53125,279561.59375,681320.1875,205775.09375,204045.328125,226916.796875
501,291342.3125,276004.53125,311154.0,280084.625,681757.125,206137.09375,204540.640625,227427.484375
502,291448.0,276515.59375,311536.03125,280539.8125,682185.4375,206340.234375,204916.328125,227874.609375
503,291292.34375,276103.875,311286.59375,280278.8125,681908.3125,206095.96875,204618.078125,227617.484375
504,291176.375,275599.96875,310954.90625,279893.125,681491.0625,205898.640625,204271.796875,227250.109375
505,291184.5,275491.78125,310864.3125,279783.15625,681350.5,205894.71875,204220.390625,227164.90625
506,291317.71875,276011.96875,311196.03125,280169.28125,681664.5625,206108.21875,204557.71875,227530.578125
507,291365.03125,276460.0625,311525.84375,280568.5,682048.875,206248.40625,204878.25,227921.546875
508,291283.84375,276075.15625,311305.8125,280314.03125,681767.0625,206039.1875,204587.671875,227658.875
509,291219.28125,275449.3125,310876.65625,279787.78125,681235.8125,205768.65625,204059.453125,227091.140625
510,291244.6875,275387.71875,310790.46875,279665.03125,681164.25,205815.953125,203988.46875,226958.8125
511,291308.875,275901.8125,311103.5625,280043.40625,681441.9375,206033.109375,204354.953125,227325.03125
512,291297.0625,276272.65625,311375.625,280388.96875,681764.6875,206092.390625,204660.453125,227673.09375
513,291223.40625,275999.09375,311255.125,280261.46875,681663.125,205971.421875,204539.390625,227578.234375
514,291064.25,275447.71875,310852.96875,279790.3125,681235.5,205715.71875,204115.25,227129.765625
515,291196.40625,275455.3125,310843.21875,279730.75,681233.1875,205820.140625,204140.1875,227101.15625
516,291383.96875,276020.46875,311228.46875,280168.75,681582.875,206118.234375,204556.296875,227524.859375
517,291448.25,276507.71875,311594.875,280611.21875,682027.6875,206328.15625,204950.125,227977.171875
518,291441.09375,276296.09375,311539.0,280541.40625,682010.4375,206294.265625,204904.703125,227962.859375
519,291463.90625,275859.15625,311276.125,280199.78125,681648.75,206165.265625,204624.59375,227648.328125
520,291462.375,275716.65625,311120.46875,279999.25,681376.75,206140.84375,204488.515625,227460.125
521,291533.1875,276154.46875,311372.96875,280301.875,681591.625,206273.359375,204764.703125,227747.828125
522,291520.75,276538.46875,311637.4375,280634.125,681899.8125,206375.640625,205026.84375,228077.125
523,291429.03125,276268.46875,311516.53125,280522.53125,681803.6875,206273.4375,204893.625,227987.71875
524,291375.21875,275798.90625,311208.8125,280150.78125,681436.25,206105.71875,204556.375,227638.84375
525,291405.25,275701.09375,311123.5,280038.65625,681331.1875,206117.34375,204505.859375,227546.21875
526,291522.8125,276130.4375,311373.75,280316.90625,681499.1875,206256.71875,204740.828125,227787.078125
527,291544.375,276456.75,311575.1875,280565.375,681639.75,206279.875,204885.84375,227972.421875
528,291442.71875,276074.28125,311348.71875,280305.71875,681352.8125,206087.65625,204597.0625,227688.109375
529,291342.75,275596.84375,311027.40625,279896.0625,681114.375,205931.734375,204269.65625,227315.46875
530,291280.15625,275456.84375,310865.3125,279696.78125,681067.0,205857.25,204147.515625,227147.5625
531,291383.0625,276000.53125,311188.5,280067.46875,681381.6875,206071.5625,204494.875,227509.296875
532,291457.1875,276472.125,311571.71875,280530.84375,681826.6875,206292.21875,204897.28125,227973.5
533,291519.25,276347.6875,311562.6875,280485.96875,681804.3125,206315.46875,204848.03125,227962.40625
534,291574.40625,275983.625,311365.53125,280223.75,681506.75,206255.109375,204627.734375,227715.828125
535,291619.46875,275934.09375,311295.0,280120.21875,681360.6875,206270.046875,204595.359375,227628.65625
536,291778.6875,276496.1875,311686.6875,280559.65625,681763.4375,206560.796875,205044.09375,228094.5625
537,291833.59375,276893.78125,311999.34375,280936.9375,682129.5,206692.671875,205353.4375,228480.703125
538,291735.96875,276591.75,311860.21875,280809.28125,682012.3125,206545.234375,205188.390625,228371.71875
539,291599.4375,276031.1875,311461.1875,280332.8125,681533.125,206298.46875,204746.1875,227920.75
540,291565.46875,275809.625,311234.75,280046.1875,681288.5625,206171.15625,204511.59375,227642.0625
541,291718.8125,276284.65625,311511.4375,280353.46875,681507.5,206338.265625,204776.046875,227905.8125
542,291784.96875,276755.5625,311847.625,280759.65625,681820.875,206515.90625,205104.625,228274.265625
543,291690.5625,276484.3125,311703.3125,280608.0,681647.3125,206385.296875,204940.46875,228122.984375
544,291581.28125,275886.96875,311298.84375,280117.15625,681209.5625,206144.875,204491.109375,227628.75
545,291573.25,275724.0625,311127.28125,279881.75,681097.1875,206094.625,204319.984375,227396.5625
546,291646.8125,276206.59375,311420.875,280228.84375,681394.1875,206294.8125,204652.578125,227731.75
547,291650.84375,276627.09375,311731.84375,280623.84375,681759.375,206427.40625,204996.796875,228136.125
548,291646.8125,276431.625,311678.0,280552.84375,681721.25,206380.375,204932.96875,228097.5
549,291585.84375,275939.28125,311362.3125,280158.375,681327.0,206232.84375,204597.0625,227724.59375
550,291705.3125,275917.28125,311326.09375,280068.625,681274.25,206324.765625,204593.390625,227660.84375
551,291855.0625,276439.9375,311648.5,280428.03125,681535.125,206553.46875,204939.40625,228008.375
552,291928.90625,276926.3125,312001.125,280853.09375,681924.6875,206733.703125,205298.453125,228424.015625
553,291951.71875,276738.125,311965.5625,280808.8125,681885.0625,206708.765625,205244.71875,228400.5
554,291883.03125,276228.5,311633.65625,280406.125,681471.625,206527.625,204882.0,228011.765625
555,291829.9375,276036.0,311447.96875,280195.3125,681332.5,206445.28125,204730.453125,227817.484375
556,291924.78125,276496.1875,311723.53125,280535.25,681575.0,206592.796875,205027.90625,228129.328125
557,291990.96875,276953.5,312041.375,280926.3125,681902.6875,206743.453125,205331.453125,228491.4375
558,291932.125,276655.25,311885.09375,280753.40625,681692.8125,206639.296875,205117.9375,228305.203125
559,291899.3125,276164.3125,311557.5,280358.9375,681315.5625,206464.6875,204725.984375,227882.84375
560,291818.75,275897.0625,311309.84375,280067.625,681165.0625,206298.828125,204514.453125,227584.75
561,291874.8125,276252.90625,311493.125,280270.0625,681320.8125,206388.953125,204711.5,227743.546875
562,291893.3125,276671.15625,311778.78125,280627.40625,681569.125,206505.1875,204993.578125,228065.234375
563,291874.09375,276463.8125,311712.96875,280556.6875,681482.25,206467.1875,204902.921875,227998.0
564,291812.3125,275984.78125,311402.65625,280179.65625,681208.3125,206312.515625,204557.0,227622.671875
565,291794.34375,275823.59375,311235.625,279968.21875,681144.0625,206262.0,204416.453125,227417.921875
566,291878.5625,276286.625,311501.4375,280280.875,681392.5,206438.84375,204709.625,227702.953125
567,291914.15625,276739.90625,311820.09375,280678.1875,681712.25,206588.0625,205040.25,228075.328125
568,291883.5,276480.375,311708.59375,280554.90625,681541.125,206493.109375,204882.625,227934.703125
569,292054.96875,276215.53125,311609.8125,280367.40625,681334.3125,206555.875,204744.046875,227756.953125
570,292099.6875,276094.21875,311491.0625,280186.46875,681270.75,206569.375,204640.328125,227591.1875
571,292196.15625,276586.5,311781.46875,280519.59375,681540.3125,206761.0625,204945.296875,227904.296875
572,292313.09375,277164.6875,312218.375,281057.90625,682001.0,206998.4375,205407.4375,228425.546875
573,292212.9375,276869.65625,312071.3125,280905.84375,681853.25,206863.796875,205241.0625,228300.015625
574,292052.1875,276262.75,311630.71875,280384.84375,681368.625,206593.703125,204752.359375,227785.5625
575,291988.90625,276020.625,311369.03125,280060.40625,681151.5,206437.6875,204491.296875,227451.984375
576,292113.875,276466.78125,311660.5,280405.875,681411.0,206590.75,204811.546875,227747.828125
577,292173.15625,277005.09375,312063.34375,280903.6875,681847.75,206802.46875,205266.71875,228241.984375
578,292083.9375,276731.0625,311902.96875,280723.53125,681648.3125,206652.53125,205071.984375,228068.53125
579,292019.21875,276217.96875,311534.6875,280263.4375,681223.0625,206440.359375,204630.765625,227594.6875
580,291972.90625,275967.0625,311304.21875,279979.3125,681035.0,206325.46875,204396.515625,227304.203125
581,292026.09375,276443.71875,311589.0625,280339.4375,681319.9375,206516.625,204729.296875,227639.390625
582,292014.28125,276890.21875,311887.6875,280715.46875,681645.0,206643.5,205066.625,228022.765625
583,291955.46875,276658.65625,311793.71875,280616.875,681542.375,206562.671875,204975.609375,227944.890625
584,291953.40625,276227.4375,311542.5625,280292.125,681264.375,206464.6875,204719.015625,227643.046875
585,292024.03125,276169.9375,311459.40625,280153.28125,681229.6875,206489.359375,204655.625,227513.953125
586,292304.875,276837.46875,311954.71875,280716.1875,681692.8125,206909.03125,205190.1875,228062.8125
587,292496.28125,277468.59375,312437.625,281259.875,682207.0,207214.453125,205677.09375,228619.828125
588,292318.09375,277083.9375,312174.59375,280975.84375,681882.125,206947.296875,205339.234375,228331.390625
589,292172.28125,276457.46875,311757.40625,280487.59375,681388.375,206694.8125,204859.375,227844.484375
590,292108.15625,276218.75,311550.34375,280234.84375,681274.5625,206578.765625,204686.921875,227624.71875
591,292213.3125,276683.5,311855.03125,280617.5,681555.9375,206755.25,205024.15625,227960.890625
592,292334.46875,277193.65625,312233.84375,281065.15625,681932.4375,206940.328125,205404.578125,228391.828125
593,292269.625,276911.21875,312080.625,280882.40625,681725.0,206810.953125,205202.875,228210.515625
594,292125.15625,276316.84375,311648.40625,280346.84375,681270.0,206556.59375,204724.28125,227685.515625
595,292128.46875,276118.1875,311489.09375,280140.5,681184.375,206519.671875,204592.046875,227482.203125
596,292306.375,276610.8125,311769.65625,280451.46875,681388.5,206702.328125,204856.96875,227735.046875
597,292322.3125,277012.6875,312031.0,280770.03125,681547.4375,206811.84375,205095.234375,228006.84375
598,292205.4375,276698.59375,311871.21875,280611.78125,681366.25,206689.546875,204933.59375,227855.578125
599,292091.53125,276181.125,311521.03125,280199.34375,681092.9375,206466.921875,204567.90625,227457.359375
600,292020.0,275968.34375,311327.1875,279971.15625,681010.5,206380.1875,204420.921875,227252.25
601,292102.96875,276380.3125,311536.21875,280205.875,681232.375,206510.640625,204624.0625,227471.75
602,292355.09375,277129.625,312092.5,280821.875,681768.3125,206891.59375,205181.515625,228088.03125
603,292514.25,277148.84375,312242.53125,281014.0,681881.1875,206996.203125,205315.265625,228246.1875
604,292328.03125,276611.6875,311814.28125,280478.90625,681406.75,206716.1875,204875.921875,227778.953125
605,292424.3125,276524.53125,311724.59375,280322.53125,681329.1875,206741.390625,204806.890625,227659.59375
606,292549.65625,276959.5,312032.0625,280706.90625,681574.625,206995.3125,205149.859375,228009.890625
607,292560.46875,277336.0625,312330.875,281118.71875,681882.75,207088.390625,205470.296875,228389.328125
608,292456.40625,277074.84375,312158.9375,280913.59375,681676.3125,206913.78125,205275.125,228222.59375
609,292392.3125,276607.6875,311831.625,280533.4375,681306.9375,206693.65625,204895.859375,227811.671875
610,292335.96875,276525.25,311660.3125,280309.9375,681183.125,206648.234375,204723.84375,227591.375
611,292327.03125,276865.34375,311850.40625,280514.5,681416.0,206788.421875,204991.703125,227864.25
612,292487.4375,277329.5625,312288.9375,281038.96875,681886.75,207048.78125,205455.09375,228387.71875
613,292509.78125,277285.90625,312295.8125,281032.15625,681868.5,207028.9375,205409.5,228386.015625
614,292518.0,276727.40625,311944.90625,280621.6875,681381.4375,206809.890625,204942.078125,227899.734375
615,292436.75,276453.71875,311611.59375,280148.90625,681023.625,206637.859375,204558.53125,227447.96875
616,292419.75,276767.09375,311787.34375,280357.5,681215.125,206758.828125,204778.5625,227645.375
617,292448.0,277319.34375,312203.5625,280884.46875,681664.5,207028.84375,205271.09375,228174.125
618,292472.6875,277002.78125,312093.5,280801.59375,681506.0,206884.625,205112.9375,228035.453125
619,292204.71875,276370.3125,311626.78125,280243.40625,681104.0625,206585.46875,204631.578125,227511.4375
620,292203.375,276254.0,311447.875,279956.40625,680989.125,206539.25,204459.828125,227275.5
621,292444.96875,276753.84375,311812.125,280387.34375,681367.3125,206775.375,204829.078125,227638.671875
622,292469.71875,277210.8125,312243.4375,280930.25,681870.3125,207088.125,205350.765625,228212.75
623,292361.8125,276936.78125,312087.9375,280721.375,681718.375,206948.640625,205198.765625,228093.125
624,292284.375,276351.71875,311700.09375,280245.46875,681287.125,206745.234375,204737.421875,227604.25
625,292505.21875,276369.84375,311684.4375,280171.4375,681258.375,206860.390625,204689.859375,227497.9375
626,292422.53125,276740.4375,311902.875,280478.90625,681478.1875,207002.90625,205008.0625,227816.671875
627,292453.46875,277134.28125,312188.09375,280819.5625,681762.8125,207101.4375,205309.359375,228181.453125
628,292427.96875,277023.15625,312080.25,280694.125,681574.25,206953.203125,205115.984375,228034.65625
629,292338.65625,276378.96875,311682.125,280272.46875,681204.9375,206678.28125,204676.71875,227574.65625
630,292366.46875,276126.125,311473.71875,280001.9375,681012.0,206602.640625,204429.0625,227269.78125
631,292420.5625,276625.75,311690.71875,280211.5,681210.8125,206763.84375,204638.359375,227469.15625
632,292467.5,277216.53125,312080.25,280672.46875,681550.75,207010.328125,205046.953125,227916.1875
633,292500.40625,277083.78125,312097.59375,280713.34375,681564.5625,206987.09375,205080.65625,227964.921875
634,292347.96875,276377.90625,311604.25,280116.375,681012.625,206671.65625,204511.234375,227351.3125
635,292394.4375,276148.9375,311356.15625,279803.875,680660.0,206587.171875,204174.4375,226944.78125
636,292526.15625,276638.4375,311678.90625,280219.1875,681014.4375,206753.734375,204538.5,227302.5
637,292362.96875,276978.0,312008.71875,280715.21875,681483.625,206900.71875,205016.828125,227834.203125
638,292049.59375,276512.5625,311707.4375,280387.28125,681275.5,206655.203125,204757.90625,227607.640625
639,291872.03125,275869.34375,311184.65625,279721.46875,680773.3125,206336.921875,204158.875,226973.84375
640,291973.625,275900.375,311103.9375,279585.75,680725.6875,206310.546875,204085.296875,226834.8125
641,292262.46875,276428.6875,311602.03125,280171.625,681307.25,206731.296875,204703.1875,227453.421875
642,292558.25,277175.78125,312121.90625,280750.0,681712.5625,207103.140625,205160.765625,227972.875
643,292473.125,277000.625,312095.375,280782.09375,681683.8125,207068.453125,205159.4375,228002.203125
644,292404.0,276418.75,311721.28125,280311.8125,681311.9375,206877.390625,204778.734375,227586.640625
645,292361.375,276225.65625,311496.96875,280036.78125,681178.75,206645.640625,204593.578125,227347.734375
646,292438.15625,276659.53125,311729.15625,280327.8125,681364.625,206757.046875,204837.75,227600.9375
647,292614.5625,277231.1875,312160.8125,280882.59375,681706.625,206991.015625,205216.921875,228053.609375
648,292423.9375,276933.03125,311989.78125,280720.03125,681530.5625,206859.234375,205025.046875,227917.078125
649,292292.4375,276443.15625,311587.4375,280201.65625,681118.1875,206645.375,204548.421875,227409.609375
650,292280.1875,276117.46875,311385.84375,279922.8125,681013.6875,206628.75,204409.3125,227205.671875
651,292459.90625,276456.40625,311638.3125,280217.40625,681235.875,206782.078125,204659.203125,227446.359375
652,292401.0625,276927.03125,311941.9375,280626.4375,681528.5,206909.296875,205006.359375,227825.796875
653,292328.71875,276645.125,311731.84375,280378.59375,681230.3125,206748.546875,204703.90625,227530.3125
654,292156.625,276055.15625,311364.8125,279968.5625,680939.3125,206599.328125,204340.46875,227124.40625
655,292201.15625,275995.40625,311238.40625,279775.09375,680901.0625,206457.703125,204263.03125,226989.9375
656,292299.0625,276469.09375,311492.84375,280071.5625,681160.75,206586.984375,204512.03125,227236.609375
657,292341.875,276862.40625,311818.75,280505.03125,681445.1875,206741.9375,204843.640625,227625.265625
658,292351.71875,276612.15625,311703.0625,280343.5625,681300.3125,206650.015625,204696.921875,227494.546875
659,292279.1875,276231.28125,311405.875,279936.65625,681029.625,206526.015625,204343.140625,227095.34375
660,292209.71875,276064.875,311333.96875,279867.90625,681072.5,206646.453125,204367.46875,227058.78125
661,292385.34375,276489.84375,311612.75,280182.15625,681357.3125,206860.84375,204684.59375,227369.375
662,292514.6875,277047.46875,311990.3125,280639.21875,681666.375,206971.0,205040.25,227785.828125
663,292523.1875,277000.96875,312023.84375,280701.96875,681639.8125,207001.65625,205036.5,227826.0625
664,292436.03125,276469.375,311670.78125,280259.40625,681270.5625,206865.671875,204636.046875,227407.375
665,292390.875,276334.71875,311501.625,280046.375,681200.5625,206737.546875,204524.640625,227251.625
666,292441.84375,276644.59375,311781.28125,280454.875,681495.9375,206900.09375,204901.765625,227647.4375
667,292449.4375,277133.03125,312047.25,280776.0,681691.6875,207009.0,205133.234375,227948.734375
668,292410.09375,276905.59375,311930.15625,280658.4375,681511.3125,206887.046875,204960.140625,227805.5
669,292355.375,276379.0625,311624.28125,280307.96875,681217.125,206701.34375,204601.53125,227428.828125
670,292420.375,276353.6875,311549.625,280151.6875,681216.625,206762.5,204571.40625,227343.453125
671,292519.4375,276735.25,311791.5625,280459.96875,681369.625,206910.828125,204811.28125,227590.296875
672,292598.46875,277382.03125,312184.0625,280932.75,681647.875,207150.703125,205162.109375,228000.859375
673,292513.28125,277197.6875,312183.34375,281007.40625,681693.4375,207088.296875,205211.375,228097.78125
674,292292.78125,276544.125,311754.1875,280500.1875,681298.75,206785.75,204809.40625,227684.984375
675,292402.9375,276405.34375,311634.21875,280314.21875,681207.6875,206762.859375,204684.40625,227520.65625
676,292522.84375,276948.0625,311943.71875,280684.625,681425.625,206955.96875,204998.234375,227862.09375
677,292592.21875,277477.6875,312320.3125,281163.59375,681834.875,207176.984375,205400.109375,228333.90625
678,292454.25,277363.96875,312245.46875,281103.40625,681755.4375,207136.390625,205304.625,228292.59375
679,292358.6875,276852.21875,311945.15625,280765.46875,681427.5,206929.6875,204997.328125,227984.234375
680,292390.25,276595.59375,311813.8125,280600.0625,681324.375,206879.703125,204929.828125,227879.625
681,292550.71875,277059.53125,312132.125,280949.0,681586.375,207121.90625,205289.421875,228248.78125
682,292738.9375,277727.78125,312601.21875,281502.8125,682054.0625,207378.78125,205731.359375,228771.8125
683,292513.0,277404.28125,312425.71875,281345.96875,681931.0,207178.421875,205575.4375,228672.578125
684,292433.34375,276935.4375,312110.75,280941.40625,681521.625,207027.328125,205235.515625,228328.4375
685,292492.78125,276828.0625,312046.5625,280847.4375,681441.25,207132.1875,205226.75,228285.796875
686,292651.5,277275.5625,312396.3125,281297.34375,681804.4375,207343.640625,205627.828125,228717.71875
687,292685.125,277811.0,312732.03125,281709.6875,682197.4375,207460.234375,205962.21875,229134.265625
688,292623.59375,277517.5625,312545.09375,281482.15625,681911.3125,207288.484375,205668.0625,228890.640625
689,292443.8125,276925.0625,312071.59375,280914.15625,681331.8125,206962.953125,205107.125,228315.125
690,292332.21875,276554.03125,311832.6875,280660.21875,681256.0,206827.140625,204971.859375,228119.59375
691,292515.59375,276954.5,312102.96875,280960.8125,681461.1875,206997.28125,205250.984375,228398.625
692,292632.71875,277602.59375,312546.25,281494.125,681867.8125,207280.515625,205685.140625,228894.75
693,292487.6875,277328.9375,312433.15625,281452.5625,681791.0625,207137.65625,205579.546875,228849.15625
694,292327.3125,276695.75,311962.6875,280856.65625,681298.125,206824.8125,205072.53125,228333.0
695,292161.46875,276386.125,311667.8125,280519.78125,681098.25,206659.671875,204802.875,228025.625
696,292223.40625,276816.1875,311957.40625,280895.1875,681415.875,206841.890625,205162.5625,228399.875
697,292535.25,277561.03125,312536.84375,281545.34375,682020.0625,207273.8125,205753.546875,229053.890625
698,292784.25,277737.6875,312735.4375,281740.96875,682176.0,207410.703125,205890.15625,229243.796875
699,292515.875,277157.875,312297.25,281217.40625,681703.1875,207168.671875,205478.078125,228821.609375
700,292565.65625,276962.96875,312211.6875,281104.125,681534.3125,207245.65625,205439.90625,228748.921875
701,292790.25,277473.5,312547.75,281505.75,681798.25,207460.59375,205779.734375,229110.84375
702,292897.625,278298.8125,313099.40625,282185.34375,682497.4375,207788.53125,206398.96875,229820.921875
703,292598.65625,277863.125,312935.0,282095.84375,682596.1875,207548.109375,206343.265625,229849.4375
704,292381.3125,276927.125,312338.71875,281408.75,681935.5,207028.296875,205664.21875,229192.828125
705,292263.03125,276379.6875,311867.75,280831.71875,681324.9375,206710.46875,205078.421875,228565.46875
706,292420.5625,276903.625,312181.1875,281200.96875,681579.4375,206949.09375,205407.359375,228890.28125
707,292598.75,277581.6875,312640.84375,281734.71875,682026.0625,207218.46875,205856.265625,229387.5625
708,292529.90625,277465.375,312590.6875,281706.75,681954.0625,207184.234375,205780.546875,229347.5
709,292442.375,276963.875,312274.53125,281383.71875,681532.375,206968.484375,205441.6875,228992.828125
710,292409.46875,276950.28125,312170.8125,281219.65625,681367.375,207035.28125,205403.328125,228912.8125
711,292533.75,277449.53125,312482.15625,281580.40625,681722.3125,207294.375,205802.890625,229322.921875
712,292517.46875,277886.375,312806.78125,282005.34375,682191.375,207444.84375,206188.6875,229789.0
713,292325.59375,277624.875,312671.875,281916.84375,682194.375,207204.796875,206088.453125,229759.3125
714,292183.96875,276988.5625,312317.90625,281551.96875,681833.375,206930.140625,205725.28125,229413.484375
715,292306.5625,276894.40625,312267.90625,281435.03125,681726.375,207023.75,205700.796875,229367.890625
716,292575.0625,277529.28125,312690.46875,281869.1875,682143.375,207400.59375,206147.28125,229837.71875
717,292659.375,278102.46875,313109.0625,282333.21875,682714.3125,207629.75,206614.265625,230378.640625
718,292705.84375,278004.84375,313128.90625,282368.34375,682813.125,207603.109375,206606.921875,230439.4375
719,292609.21875,277442.375,312759.125,281952.34375,682373.375,207342.484375,206161.234375,230016.71875
720,292503.53125,277193.28125,312521.46875,281666.40625,682102.6875,207274.171875,205953.71875,229786.578125
721,292589.625,277561.21875,312738.5625,281929.625,682328.0,207399.609375,206190.203125,230046.484375
722,292604.5625,277964.59375,313041.65625,282309.15625,682771.25,207519.5,206528.15625,230459.453125
723,292554.75,277696.375,312889.5625,282121.5,682593.625,207392.8125,206286.9375,230256.59375
724,292515.3125,277226.375,312508.78125,281624.9375,682050.8125,207167.6875,205812.640625,229745.015625
725,292450.875,276867.59375,312245.21875,281320.3125,681649.375,207041.453125,205564.53125,229419.75
726,292594.90625,277197.75,312468.625,281579.0625,681777.5625,207235.453125,205798.15625,229610.359375
727,292576.21875,277666.15625,312715.125,281838.4375,682049.75,207351.421875,206047.875,229865.265625
728,292607.78125,277510.5,312691.96875,281819.5625,682023.1875,207303.40625,205995.5625,229830.578125
729,292566.75,276949.75,312347.75,281412.78125,681564.5625,207094.5625,205584.375,229403.921875
730,292524.09375,276747.5,312069.625,281033.0625,681269.9375,207009.890625,205291.484375,229047.015625
731,292506.03125,277178.28125,312308.6875,281346.6875,681537.25,207182.890625,205613.171875,229361.28125
732,292493.0625,277503.4375,312610.0,281794.71875,681931.3125,207235.90625,205970.703125,229775.859375
733,292389.34375,277088.40625,312404.625,281580.5,681745.25,206960.625,205740.046875,229582.5625
734,292421.90625,276785.78125,312165.0,281227.6875,681387.0,206874.609375,205426.75,229248.703125
735,292489.84375,276675.28125,312086.96875,281097.0625,681316.5,206942.203125,205377.578125,229152.78125
736,292810.625,277246.21875,312490.625,281525.0625,681639.625,207295.09375,205755.328125,229532.125
737,293093.625,278044.90625,313055.6875,282172.71875,682182.8125,207669.703125,206297.484375,230139.828125
738,292886.8125,277878.25,312979.96875,282113.375,682230.4375,207607.390625,206284.34375,230174.96875
739,292675.375,277192.59375,312541.0625,281620.90625,681775.5625,207285.890625,205822.734375,229729.28125
740,292689.3125,276898.0625,312297.15625,281308.53125,681448.9375,207150.796875,205538.6875,229415.546875
741,292826.5625,277333.84375,312553.21875,281617.34375,681652.625,207306.1875,205796.453125,229686.625
742,292908.09375,277744.84375,312772.34375,281862.40625,681743.5,207290.0,205895.875,229832.359375
743,292771.5625,277504.6875,312652.375,281739.0,681567.3125,207224.734375,205730.921875,229678.125
744,292563.4375,276895.125,312267.5625,281342.59375,681271.75,206991.015625,205397.4375,229277.953125
745,292533.75,276641.75,312045.65625,281058.1875,681179.875,206830.359375,205241.859375,229038.15625
746,292577.8125,276965.5,312211.6875,281215.625,681375.625,207040.015625,205466.28125,229215.984375
747,292671.25,277546.625,312679.1875,281801.34375,681924.75,207322.359375,206022.921875,229801.0625
748,292704.96875,277396.53125,312653.4375,281794.34375,681903.625,207180.921875,205963.375,229777.828125
749,292677.40625,277030.03125,312325.5,281389.625,681403.3125,206975.46875,205499.09375,229300.296875
750,292342.5,276588.1875,311902.78125,280867.21875,681137.8125,206754.453125,205167.296875,228910.75
751,292529.0,276912.5625,312175.5625,281175.65625,681397.25,206993.703125,205458.234375,229185.5
752,292876.0,277885.75,312868.375,281915.25,682077.9375,207515.75,206137.453125,229914.53125
753,292819.59375,277723.21875,312830.375,281890.03125,682075.3125,207429.65625,206103.65625,229919.078125
754,292833.78125,277199.375,312584.5,281575.9375,681731.1875,207295.71875,205828.375,229624.84375
755,292993.21875,277151.1875,312480.8125,281371.09375,681489.5,207278.375,205699.0,229443.34375
756,292800.53125,277373.1875,312537.40625,281491.0,681599.375,207292.859375,205860.828125,229600.171875
757,292811.1875,277838.53125,312942.40625,282036.375,682152.5625,207532.296875,206343.71875,230154.21875
758,292805.0,277651.25,312899.125,282007.25,682129.3125,207430.09375,206238.484375,230118.546875
759,292702.46875,277143.125,312465.15625,281441.1875,681564.375,207123.609375,205662.078125,229535.890625
760,292559.21875,276611.25,311952.5,280787.8125,680962.1875,206761.328125,205046.234375,228842.625
761,292664.375,276906.125,312160.28125,281040.21875,681157.8125,206928.96875,205281.375,229024.5625
762,292817.78125,277575.0625,312690.5625,281701.375,681693.375,207289.46875,205866.734375,229625.296875
763,292673.21875,277358.59375,312607.84375,281625.375,681661.625,207162.5,205844.015625,229610.625
764,292681.1875,276938.5,312326.65625,281247.0,681334.9375,206959.640625,205516.34375,229241.109375
765,292520.5,276681.875,312091.625,280994.6875,681251.5,206884.09375,205362.390625,229017.59375
766,292644.59375,277070.71875,312321.65625,281255.15625,681483.375,207048.328125,205638.65625,229277.140625
767,292844.625,277711.40625,312764.5625,281774.34375,681889.0625,207277.921875,206053.953125,229747.78125
768,292692.1875,277561.375,312675.25,281717.90625,681785.5625,207182.265625,205930.296875,229668.296875
769,292498.34375,277012.6875,312308.25,281297.25,681408.3125,206935.859375,205570.4375,229285.8125
770,292596.875,276792.3125,312169.3125,281078.21875,681318.1875,206907.0625,205462.25,229114.0625
771,292755.03125,277266.875,312464.25,281409.375,681555.125,207141.3125,205789.921875,229436.5625
772,292803.125,277805.71875,312855.40625,281884.5625,681982.6875,207351.15625,206205.40625,229913.8125
773,292794.28125,277702.8125,312849.875,281895.375,681976.8125,207318.96875,206175.1875,229931.59375
774,292841.75,277281.1875,312636.09375,281633.96875,681670.9375,207239.578125,205929.40625,229671.78125
775,292817.96875,277089.65625,312471.15625,281420.71875,681450.1875,207210.25,205795.5625,229498.875
776,292805.09375,277340.5625,312585.84375,281556.1875,681548.0,207282.9375,205946.65625,229654.171875
777,292891.5625,277902.65625,312942.9375,281974.15625,681896.75,207440.109375,206273.171875,230049.171875
778,292842.46875,277869.375,312895.125,281917.1875,681816.75,207373.421875,206161.0625,229996.15625
779,292675.53125,277145.46875,312503.34375,281500.65625,681432.1875,207106.0,205764.265625,229595.25
780,292662.65625,276889.21875,312317.90625,281263.5625,681348.6875,207023.296875,205607.53125,229390.234375
781,292777.75,277250.0625,312519.34375,281490.5625,681518.5,207153.296875,205819.078125,229596.859375
782,292884.21875,277754.9375,312826.8125,281842.8125,681742.0,207269.34375,206079.609375,229901.109375
783,292805.1875,277569.25,312756.34375,281792.125,681643.5625,207194.15625,205994.21875,229843.359375
784,292702.90625,277086.375,312449.875,281446.5625,681343.4375,207043.234375,205669.671875,229498.78125
785,292684.9375,276843.8125,312241.375,281212.6875,681230.9375,206970.28125,205487.203125,229260.515625
786,292768.09375,277190.53125,312430.71875,281423.3125,681441.875,207120.125,205733.15625,229493.953125
787,292878.5,277823.53125,312856.75,281926.40625,681866.375,207377.796875,206172.953125,229984.625
788,292814.75,277697.09375,312836.71875,281934.0,681877.5625,207323.53125,206163.203125,230009.75
789,292754.59375,277117.21875,312504.9375,281534.4375,681483.25,207089.90625,205804.859375,229625.375
790,292849.25,276940.375,312352.9375,281297.96875,681335.8125,207057.890625,205629.890625,229394.984375
791,292899.25,277284.21875,312545.625,281538.03125,681505.1875,207199.703125,205855.46875,229614.5625
792,292958.53125,277856.875,312934.71875,282003.3125,681911.0625,207418.5625,206273.0,230080.640625
793,292910.6875,277722.5,312900.5625,281978.71875,681879.25,207360.265625,206226.234375,230071.796875
794,292849.875,277240.6875,312605.34375,281623.3125,681520.875,207212.84375,205901.953125,229728.734375
795,292901.125,277073.21875,312454.4375,281399.0,681409.5,207187.984375,205762.75,229535.34375
796,292955.84375,277378.90625,312617.9375,281592.125,681557.8125,207292.0625,205932.53125,229705.84375
797,292990.0625,277867.59375,312941.6875,281990.25,681855.8125,207425.546875,206251.984375,230081.265625
798,292949.5,277745.125,312906.46875,281966.46875,681801.75,207344.53125,206190.46875,230057.484375
799,292857.125,277230.75,312596.59375,281607.5,681470.125,207156.6875,205865.125,229709.0625
800,292814.3125,276878.3125,312269.8125,281190.59375,681160.125,206965.453125,205500.515625,229277.765625
801,292936.0625,277234.59375,312429.03125,281357.875,681277.25,207083.828125,205638.203125,229385.234375
802,293030.59375,277850.34375,312901.71875,281939.90625,681766.3125,207382.890625,206169.90625,229952.703125
803,292989.4375,277788.9375,312944.1875,282018.21875,681852.625,207387.625,206242.6875,230063.03125
804,292801.53125,277165.75,312505.46875,281515.0625,681396.5625,207062.71875,205773.125,229576.125
805,292673.65625,276774.96875,312155.625,281098.40625,681130.375,206828.5625,205425.6875,229172.71875
806,292776.65625,277139.65625,312346.96875,281311.5625,681328.6875,206967.6875,205628.09375,229363.859375
807,293022.34375,277892.46875,312915.125,281964.5,681893.1875,207347.578125,206212.375,230002.140625
808,293202.6875,278017.53125,313130.4375,282189.28125,682105.875,207535.515625,206410.234375,230242.828125
809,293199.375,277585.875,312895.90625,281892.09375,681769.375,207446.546875,206145.046875,229964.5
810,293250.96875,277405.0,312747.40625,281679.90625,681489.0,207409.53125,206017.109375,229778.71875
811,293358.4375,277798.65625,312991.3125,281964.21875,681668.0,207609.1875,206309.828125,230056.0625
812,293399.90625,278363.09375,313395.53125,282474.03125,682159.625,207838.6875,206774.03125,230570.234375
813,293297.375,278207.875,313316.75,282398.03125,682121.8125,207711.734375,206678.453125,230526.34375
814,293176.5,277647.03125,312944.03125,281947.5,681668.4375,207452.265625,206239.640625,230087.265625
815,293152.34375,277300.9375,312667.84375,281593.90625,681411.5625,207309.125,205940.9375,229735.625
816,293266.25,277611.09375,312832.0,281776.03125,681531.25,207427.15625,206088.546875,229869.109375
817,293388.375,278201.34375,313243.53125,282265.34375,681896.3125,207631.984375,206485.15625,230318.734375
818,293273.59375,277963.1875,313096.46875,282104.34375,681663.5,207457.453125,206271.03125,230137.421875
819,293195.90625,277480.65625,312791.03125,281737.75,681362.1875,207313.421875,205931.734375,229764.765625
820,293194.5625,277325.25,312664.96875,281578.0,681371.625,207312.4375,205872.359375,229638.34375
821,293282.4375,277688.53125,312871.5,281811.6875,681556.875,207454.15625,206127.625,229878.21875
822,293339.125,278240.875,313247.5625,282268.40625,681937.25,207633.40625,206521.640625,230327.578125
823,293227.375,278087.90625,313183.4375,282225.3125,681897.9375,207517.1875,206457.984375,230308.0
824,293135.0,277565.21875,312850.59375,281830.3125,681525.1875,207301.53125,206098.296875,229935.265625
825,293167.09375,277352.71875,312679.09375,281597.75,681401.25,207269.34375,205942.640625,229729.28125
826,293416.46875,277876.09375,313039.25,281986.40625,681702.875,207593.890625,206342.546875,230118.640625
827,293479.21875,278433.09375,313419.65625,282452.03125,682105.8125,207773.59375,206745.421875,230579.09375
828,293480.5625,278377.59375,313456.0625,282500.21875,682160.3125,207762.875,206774.75,230656.25
829,293420.65625,277876.53125,313157.0,282136.78125,681760.1875,207596.9375,206440.09375,230315.96875
830,293399.375,277614.59375,312937.75,281857.46875,681503.125,207519.328125,206233.921875,230060.171875
831,293457.5,277913.125,313089.21875,282032.8125,681624.625,207634.03125,206403.890625,230224.40625
832,293484.59375,278417.09375,313427.1875,282450.0625,681981.0625,207786.5625,206760.53125,230638.09375
833,293406.71875,278262.34375,313368.625,282403.5625,681943.0625,207680.703125,206695.171875,230610.203125
834,293329.75,277735.28125,313043.625,282011.875,681561.125,207488.65625,206325.125,230227.359375
835,293299.96875,277469.21875,312816.34375,281731.25,681404.9375,207386.921875,206113.84375,229961.28125
836,293397.59375,277841.84375,313030.5625,281982.375,681599.25,207541.59375,206361.859375,230200.265625
837,293499.78125,278433.625,313444.4375,282480.09375,682017.9375,207744.28125,206786.90625,230680.390625
838,293458.3125,278342.1875,313425.65625,282472.5,682003.4375,207702.875,206741.671875,230680.46875
839,293337.5,277762.5625,313055.6875,282035.84375,681577.4375,207469.078125,206328.421875,230253.640625
840,293302.65625,277438.1875,312794.4375,281706.125,681370.0,207311.1875,206067.984375,229932.046875
841,293400.71875,277776.84375,312974.40625,281905.9375,681522.4375,207431.984375,206260.03125,230108.625
842,293489.0625,278362.03125,313381.65625,282397.6875,681915.75,207651.734375,206682.296875,230580.0625
843,293446.3125,278292.5625,313396.59375,282434.34375,681942.125,207625.90625,206690.53125,230630.046875
844,293350.5625,277760.84375,313063.5625,282041.3125,681557.625,207423.296875,206320.203125,230247.828125
845,293351.8125,277494.3125,312855.15625,281774.96875,681403.5,207343.640625,206115.09375,229992.578125
846,293425.9375,277843.90625,313047.90625,282002.59375,681571.875,207496.625,206336.109375,230208.3125
847,293489.9375,278410.9375,313432.0,282473.75,681964.375,207682.40625,206739.34375,230664.46875
848,293439.96875,278304.71875,313417.96875,282478.3125,681960.5,207618.5625,206716.546875,230678.6875
849,293401.15625,277801.71875,313121.84375,282108.8125,681580.8125,207475.25,206373.125,230316.671875
850,293392.78125,277528.75,312901.28125,281822.53125,681420.25,207404.703125,206152.203125,230043.53125
851,293392.6875,277741.09375,312972.09375,281906.21875,681504.375,207449.859375,206233.921875,230113.71875
852,293434.96875,278249.625,313319.96875,282326.40625,681839.625,207621.25,206593.25,230520.53125
853,293424.25,278182.5,313345.625,282365.21875,681864.375,207587.28125,206602.640625,230574.796875
854,293403.84375,277758.96875,313103.59375,282061.25,681588.25,207485.703125,206324.578125,230289.9375
855,293453.46875,277552.875,312948.84375,281843.25,681496.3125,207475.078125,206172.859375,230094.40625
856,293563.0,277886.375,313137.125,282050.40625,681614.125,207612.484375,206374.296875,230290.390625
857,293579.34375,278369.1875,313442.375,282433.96875,681888.5625,207689.109375,206675.765625,230645.0625
858,293497.09375,278244.09375,313387.9375,282388.65625,681809.0,207585.9375,206593.515625,230601.265625
859,293405.0,277741.53125,313075.8125,282017.4375,681477.25,207387.625,206246.796875,230239.875
860,293354.40625,277422.28125,312810.8125,281685.28125,681286.0625,207244.484375,205985.28125,229919.53125
861,293388.9375,277720.15625,312948.5625,281849.25,681446.875,207337.109375,206158.46875,230071.703125
862,293499.6875,278340.84375,313388.0,282377.1875,681881.9375,207587.015625,206627.21875,230584.71875
863,293503.28125,278312.5,313443.90625,282455.78125,681945.3125,207594.15625,206681.3125,230674.125
864,293425.125,277805.09375,313137.75,282082.6875,681572.5625,207420.078125,206340.046875,230316.3125
865,293437.65625,277563.625,312947.6875,281821.1875,681436.6875,207363.671875,206162.3125,230087.171875
866,293555.125,277916.59375,313140.0,282023.59375,681581.625,207512.53125,206367.3125,230281.890625
867,293611.625,278508.1875,313544.28125,282510.25,682002.5625,207756.34375,206796.828125,230761.5625
868,293574.1875,278409.40625,313552.4375,282528.65625,682031.25,207704.21875,206808.546875,230808.421875
869,293542.6875,277968.1875,313307.375,282221.09375,681733.875,207585.9375,206547.921875,230537.6875
870,293458.125,277644.875,313043.875,281894.21875,681556.0625,207435.90625,206327.796875,230267.328125
871,293497.90625,277814.59375,313081.09375,281910.21875,681568.75,207453.609375,206356.328125,230270.28125
872,293531.25,278130.375,313249.0,282104.59375,681579.1875,207466.578125,206445.640625,230387.671875
873,293450.0625,277927.0625,313105.40625,281933.5625,681386.375,207334.171875,206223.109375,230171.484375
874,293326.34375,277370.78125,312764.65625,281531.6875,681147.875,207157.40625,205871.734375,229774.609375
875,293269.21875,276997.75,312456.84375,281139.1875,680871.625,207008.359375,205577.3125,229399.1875
876,293358.53125,277311.125,312614.09375,281304.125,681093.25,207146.859375,205774.109375,229550.375
877,293443.1875,277839.4375,312976.03125,281738.21875,681462.0625,207338.71875,206165.265625,229959.859375
878,293433.90625,277740.375,312956.09375,281699.9375,681425.25,207313.6875,206138.796875,229937.234375
879,293273.5,277039.4375,312458.1875,281088.5,680930.8125,206988.515625,205569.359375,229313.359375
880,293253.90625,276705.9375,312165.90625,280694.90625,680601.875,206893.75,205264.75,228912.8125
881,293465.8125,277104.5,312416.6875,280937.75,680878.8125,207151.859375,205539.40625,229131.234375
882,293566.125,277641.40625,312770.03125,281345.4375,681301.6875,207335.59375,205890.15625,229496.1875
883,293539.75,277605.90625,312783.0,281360.46875,681387.3125,207339.4375,205898.734375,229504.953125
884,293484.78125,277110.59375,312466.5,280963.9375,681085.125,207171.890625,205542.1875,229093.59375
885,293484.9375,276830.03125,312212.9375,280625.625,680765.6875,207102.875,205275.21875,228736.140625
886,293543.15625,277228.53125,312435.65625,280896.0,681071.8125,207296.25,205577.234375,228993.28125
887,293567.03125,277782.75,312818.3125,281385.21875,681510.625,207392.375,206021.046875,229469.453125
888,293491.65625,277661.59375,312760.28125,281332.5625,681437.125,207265.5,205920.28125,229410.359375
889,293370.5,277072.78125,312341.15625,280832.53125,680995.375,206960.984375,205407.984375,228877.046875
890,293362.625,276848.09375,312143.03125,280588.875,680756.5,206875.328125,205207.0,228609.71875
891,293448.375,277271.4375,312386.46875,280877.65625,681054.375,207049.84375,205506.78125,228887.78125
892,293548.34375,277934.9375,312840.46875,281437.71875,681496.125,207274.625,205989.578125,229422.703125
893,293513.65625,277984.09375,312942.21875,281600.34375,681568.3125,207288.390625,206118.953125,229605.0
894,293434.875,277596.25,312734.53125,281372.53125,681430.25,207166.96875,205917.421875,229418.140625
895,293389.71875,277396.53125,312567.0625,281170.5625,681380.5625,207093.03125,205792.796875,229274.28125
896,293431.03125,277747.15625,312759.3125,281413.46875,681565.3125,207204.796875,206035.703125,229541.875
897,293538.84375,278420.59375,313241.65625,282006.25,682071.3125,207463.625,206552.125,230153.875
898,293531.09375,278473.59375,313344.75,282149.46875,682226.875,207473.109375,206663.796875,230346.984375
899,293486.8125,278057.40625,313145.375,281911.3125,681989.5625,207370.734375,206463.609375,230171.921875
900,293519.71875,277849.28125,313003.375,281711.03125,681745.5,207348.921875,206340.859375,230036.921875
901,293536.25,278094.53125,313095.125,281816.4375,681751.9375,207372.609375,206448.046875,230164.953125
902,293610.84375,278636.40625,313500.5625,282325.0,682210.125,207550.53125,206881.234375,230684.671875
903,293552.96875,278579.375,313533.21875,282399.5625,682302.9375,207501.09375,206920.65625,230800.015625
904,293501.3125,278104.96875,313271.6875,282081.96875,681996.625,207353.390625,206647.78125,230541.265625
905,293508.5625,277841.40625,313079.5625,281827.4375,681720.0,207298.671875,206488.90625,230351.71875
906,293560.6875,278114.09375,313221.8125,281991.59375,681807.375,207408.734375,206670.859375,230540.1875
907,293638.375,278654.21875,313598.84375,282449.09375,682219.375,207591.84375,207061.75,231006.1875
908,293577.5625,278536.46875,313569.34375,282429.875,682206.0,207518.875,207012.484375,231015.03125
909,293428.34375,277894.875,313161.71875,281946.71875,681705.375,207244.84375,206560.078125,230559.234375
910,293380.59375,277535.1875,312870.875,281575.5625,681449.75,207095.8125,206266.28125,230219.3125
911,293426.90625,277685.375,312890.65625,281578.0,681456.8125,207090.53125,206249.484375,230191.78125
912,293466.25,278244.0,313264.71875,282035.84375,681817.1875,207306.890625,206640.453125,230642.65625
913,293396.875,278175.96875,313274.03125,282068.125,681860.5,207257.359375,206661.015625,230716.78125
914,293317.40625,277630.5,312939.28125,281658.5625,681510.1875,207037.875,206287.296875,230336.53125
915,293435.78125,277468.59375,312837.34375,281492.78125,681486.6875,207095.984375,206200.3125,230195.53125
916,293532.59375,277770.78125,312996.5,281667.125,681606.1875,207195.234375,206400.578125,230375.421875
917,293613.96875,278346.09375,313381.5625,282126.6875,681963.8125,207378.78125,206805.59375,230830.765625
918,293597.78125,278331.09375,313426.0,282187.75,681998.875,207384.046875,206839.390625,230912.671875
919,293496.125,277802.78125,313089.125,281785.25,681609.625,207171.53125,206463.875,230531.25
920,293441.59375,277486.46875,312820.0,281445.84375,681413.4375,207042.78125,206195.296875,230223.25
921,293526.53125,277813.6875,312987.1875,281628.6875,681573.375,207206.21875,206376.796875,230409.65625
922,293591.34375,278420.0625,313410.53125,282152.875,682014.625,207402.46875,206851.453125,230945.75
923,293512.21875,278332.15625,313403.75,282170.84375,682035.375,207294.734375,206861.734375,231000.015625
924,293409.65625,277783.375,313058.0,281753.5,681627.625,207082.75,206477.203125,230609.390625
925,293386.0625,277477.34375,312799.28125,281422.78125,681420.125,206957.578125,206211.296875,230295.84375
926,293467.96875,277789.46875,312955.8125,281594.625,681579.3125,207074.703125,206397.625,230466.703125
927,293566.40625,278404.65625,313380.3125,282101.90625,681983.6875,207296.703125,206839.203125,230968.640625
928,293506.84375,278330.65625,313379.34375,282114.25,681974.625,207233.40625,206821.953125,231010.5625
929,293417.96875,277810.125,313058.8125,281728.375,681604.25,207036.53125,206462.453125,230652.671875
930,293368.4375,277524.8125,312833.96875,281445.125,681475.3125,206937.640625,206263.34375,230414.40625
931,293435.78125,277831.65625,312992.3125,281628.15625,681623.5625,207053.875,206469.25,230620.75
932,293511.84375,278416.5625,313390.59375,282120.34375,682029.25,207253.34375,206895.71875,231113.828125
933,293479.59375,278377.21875,313418.5,282166.75,682090.1875,207239.21875,206924.328125,231196.265625
934,293416.625,277861.25,313116.9375,281801.15625,681727.0625,207053.34375,206587.171875,230866.078125
935,293294.875,277469.375,312794.875,281411.15625,681478.1875,206870.140625,206282.5625,230529.90625
936,293437.65625,277800.625,312992.03125,281620.90625,681683.625,207037.15625,206502.234375,230754.0625
937,293631.5625,278472.625,313485.5625,282191.59375,682159.6875,207333.984375,207014.453125,231333.0625
938,293567.28125,278382.40625,313464.625,282181.9375,682137.125,207265.140625,206982.34375,231362.734375
939,293461.875,277836.65625,313130.15625,281788.09375,681759.1875,207065.046875,206620.15625,231012.171875
940,293413.0625,277519.71875,312879.375,281473.5625,681591.0,206968.140625,206384.9375,230748.6875
941,293469.84375,277718.90625,312937.40625,281530.6875,681619.9375,206987.71875,206440.09375,230808.140625
942,293481.46875,278164.25,313206.4375,281869.0,681816.3125,207066.21875,206707.953125,231131.0
943,293415.65625,278032.125,313155.09375,281831.5625,681743.25,206960.984375,206632.765625,231104.078125
944,293361.65625,277504.4375,312831.53125,281425.5625,681461.875,206780.734375,206262.625,230723.5625
945,293304.4375,277126.96875,312504.84375,281003.46875,681154.875,206617.484375,205926.546875,230336.609375
946,293342.78125,277320.53125,312554.46875,281055.59375,681213.1875,206672.109375,205989.390625,230374.96875
947,293356.5625,277791.15625,312845.40625,281427.34375,681481.3125,206788.15625,206303.21875,230722.3125
948,293359.15625,277773.46875,312902.09375,281505.03125,681537.875,206800.046875,206378.9375,230823.890625
949,293222.34375,277171.75,312515.3125,281046.90625,681237.5,206556.953125,205990.015625,230396.34375
950,293160.9375,276785.96875,312200.5,280656.03125,680957.0,206408.171875,205708.125,230032.0
951,293233.25,277031.1875,312300.71875,280762.96875,681113.625,206520.390625,205847.328125,230130.4375
952,293378.8125,277601.53125,312679.65625,281199.53125,681487.9375,206747.03125,206214.34375,230531.703125
953,293416.375,277570.0625,312704.84375,281213.03125,681476.625,206761.15625,206206.125,230548.0625
954,293387.5,277031.5625,312368.0625,280775.75,681130.9375,206582.078125,205795.828125,230107.015625
955,293306.40625,276634.5,312024.03125,280341.125,680727.25,206420.34375,205443.03125,229678.578125
956,293334.5625,276830.84375,312080.71875,280405.6875,680781.75,206484.890625,205526.265625,229719.53125
957,293398.9375,277353.4375,312427.6875,280826.96875,681254.0,206655.125,205897.84375,230119.171875
958,293338.125,277281.09375,312422.5,280840.5625,681398.9375,206594.953125,205908.578125,230150.015625
959,293234.6875,276679.65625,312022.78125,280355.25,680975.8125,206340.671875,205459.125,229661.5
960,293180.59375,276260.5,311659.6875,279895.1875,680490.0625,206142.8125,205063.3125,229182.1875
961,293248.28125,276514.53125,311747.5625,279988.0625,680507.75,206216.84375,205151.46875,229229.3125
962,293325.34375,277156.375,312160.46875,280488.375,681024.8125,206456.28125,205593.234375,229709.328125
963,293256.5,277115.25,312155.09375,280505.46875,681118.75,206390.5625,205573.921875,229731.78125
964,293125.15625,276574.40625,311795.125,280083.375,680736.875,206135.671875,205168.28125,229310.671875
965,293041.21875,276251.125,311525.75,279759.625,680440.875,206003.703125,204933.234375,229014.28125
966,293111.5,276536.59375,311669.34375,279929.59375,680608.3125,206117.875,205125.1875,229191.3125
967,293257.0625,277217.875,312140.59375,280493.65625,681209.6875,206380.375,205615.140625,229752.96875
968,293269.5625,277290.03125,312250.5625,280632.78125,681467.4375,206409.34375,205714.203125,229928.46875
969,293207.25,276825.75,311973.0625,280301.53125,681212.4375,206254.125,205391.4375,229623.59375
970,293146.4375,276511.3125,311713.0625,279989.9375,680932.5,206147.375,205140.203125,229346.078125
971,293203.65625,276768.4375,311834.65625,280129.0625,681075.8125,206255.734375,205292.5625,229504.140625
972,293321.59375,277368.96875,312244.21875,280617.21875,681462.0,206480.59375,205700.25,229983.375
973,293271.96875,277363.875,312291.875,280701.1875,681487.4375,206493.296875,205744.59375,230096.203125
974,293155.3125,276873.40625,311986.90625,280357.3125,681263.5,206320.921875,205423.453125,229791.859375
975,293131.875,276584.875,311756.15625,280071.21875,681050.5625,206250.1875,205207.4375,229549.5625
976,293239.96875,276843.4375,311878.71875,280206.65625,681150.75,206377.78125,205325.546875,229669.8125
977,293310.25,277471.25,312318.34375,280755.1875,681605.1875,206639.921875,205817.46875,230227.71875
978,293233.53125,277392.40625,312315.125,280775.84375,681593.125,206556.421875,205825.6875,230288.609375
979,293113.28125,276817.53125,311950.53125,280347.40625,681262.0625,206308.671875,205417.1875,229882.0625
980,293022.4375,276381.9375,311595.9375,279912.53125,680861.0625,206088.8125,205040.078125,229465.25
981,293082.53125,276532.125,311631.34375,279937.28125,680835.3125,206112.6875,205049.1875,229465.609375
982,293179.4375,277144.75,312054.5,280451.46875,681308.125,206359.453125,205478.703125,229965.125
983,293131.875,277150.125,312102.4375,280527.625,681419.25,206354.984375,205519.5625,230069.109375
984,293021.625,276628.40625,311772.6875,280137.5625,681122.6875,206155.328125,205143.34375,229702.890625
985,292999.09375,276337.59375,311547.65625,279849.125,680884.9375,206100.4375,204929.390625,229448.359375
986,293036.03125,276546.625,311635.0,279946.5,680991.6875,206168.390625,205044.28125,229554.9375
987,293088.5,277074.5625,311977.78125,280360.34375,681383.8125,206300.53125,205390.28125,229959.765625
988,293073.21875,277088.875,312026.6875,280424.09375,681435.9375,206287.828125,205413.96875,230036.03125
989,293002.875,276636.28125,311753.375,280097.84375,681193.375,206141.03125,205102.5625,229723.46875
990,292991.78125,276360.03125,311544.4375,279832.0625,680984.375,206065.484375,204912.484375,229490.921875
991,293050.53125,276592.46875,311650.65625,279947.21875,681114.625,206143.265625,205049.453125,229614.46875
992,293141.90625,277127.3125,312006.3125,280373.59375,681451.5,206297.9375,205393.140625,230010.28125
993,293224.0625,277276.1875,312186.75,280578.40625,681565.8125,206420.25,205560.78125,230233.53125
994,293154.21875,276845.5,311930.0625,280263.625,681346.1875,206294.0,205265.734375,229956.28125
995,293041.21875,276494.59375,311635.53125,279923.5,681084.4375,206118.140625,204999.84375,229657.84375
996,293047.84375,276731.96875,311739.875,280059.78125,681264.0625,206198.515625,205171.5,229812.0625
997,293134.46875,277328.65625,312161.0,280567.34375,681696.25,206423.109375,205637.671875,230328.75
998,293096.5625,277289.0625,312182.625,280604.0,681678.4375,206387.609375,205650.625,230391.328125
999,292967.09375,276587.90625,311683.1875,279999.59375,681076.125,206002.984375,205015.84375,229748.859375
1000,292915.96875,276242.375,311391.90625,279637.59375,680708.1875,205871.640625,204702.375,229380.40625
1001,292992.3125,276549.21875,311573.3125,279852.15625,680932.1875,206054.03125,204950.484375,229608.3125
1002,293097.625,277177.125,312016.96875,280392.90625,681412.375,206304.46875,205442.9375,230149.484375
1003,292934.03125,277082.59375,311962.15625,280375.03125,681391.5625,206178.84375,205405.390625,230159.953125
1004,292747.59375,276479.90625,311568.5,279937.65625,681084.625,205893.015625,204998.40625,229749.21875
1005,292781.21875,276235.75,311390.5625,279706.0,680924.8125,205861.1875,204843.5625,229551.984375
1006,292901.375,276557.96875,311570.0,279901.875,681151.1875,206030.703125,205068.765625,229768.4375
1007,293010.375,277177.1875,312005.875,280424.03125,681592.0,206282.734375,205534.765625,230298.4375
1008,293026.03125,277228.53125,312114.84375,280558.46875,681653.875,206330.390625,205639.640625,230468.484375
1009,293033.0,276811.53125,311895.90625,280277.75,681461.4375,206208.4375,205365.0625,230216.90625
1010,293115.6875,276624.84375,311767.15625,280084.625,681347.25,206214.875,205221.75,230053.828125
1011,293136.96875,276835.3125,311823.375,280151.78125,681398.875,206242.328125,205278.703125,230118.1875
1012,293144.125,277402.25,312198.28125,280634.03125,681738.0,206431.953125,205673.4375,230594.90625
1013,293070.53125,277457.9375,312302.53125,280796.9375,681856.625,206442.59375,205814.96875,230816.734375
1014,292958.875,276981.3125,312023.84375,280484.28125,681597.4375,206242.15625,205521.96875,230549.140625
1015,292888.6875,276641.375,311750.78125,280152.75,681402.6875,206105.0,205257.328125,230257.3125
1016,292977.90625,276877.15625,311854.0625,280258.0625,681492.5,206171.25,205369.09375,230359.6875
1017,293043.71875,277448.71875,312251.65625,280748.03125,681829.375,206371.703125,205780.546875,230837.65625
1018,292946.8125,277362.4375,312218.21875,280738.0,681724.0625,206262.265625,205706.0625,230836.21875
1019,292823.5,276840.5,311876.3125,280345.4375,681375.625,206034.015625,205301.5,230452.390625
1020,292812.5,276587.28125,311701.875,280138.0,681275.375,206000.921875,205152.09375,230282.53125
1021,292933.46875,276954.5625,311946.875,280429.65625,681555.875,206222.03125,205472.984375,230609.9375
1022,293067.5,277644.625,312449.875,281036.71875,682070.9375,206525.65625,206038.21875,231251.15625
1023,293020.03125,277656.34375,312511.46875,281129.96875,682149.0,206496.875,206105.09375,231393.3125
1024,292878.125,277109.34375,312171.09375,280740.6875,681730.3125,206262.625,205724.65625,231044.359375
1025,292807.5,276740.90625,311885.25,280395.21875,681484.875,206116.890625,205442.3125,230745.390625
1026,292878.21875,276980.40625,312012.21875,280548.28125,681615.0625,206225.421875,205612.8125,230921.421875
1027,292996.4375,277623.78125,312472.75,281109.84375,682078.4375,206488.90625,206111.609375,231501.765625
1028,293010.90625,277655.34375,312573.34375,281241.375,682192.4375,206505.0,206205.765625,231680.671875
1029,292918.5625,277111.21875,312236.1875,280839.03125,681773.125,206278.984375,205812.734375,231309.8125
1030,292852.5625,276724.34375,311929.875,280462.71875,681499.1875,206110.1875,205487.109375,230965.6875
1031,292957.8125,277012.59375,312095.90625,280646.28125,681637.0625,206272.71875,205671.640625,231166.9375
1032,293005.28125,277563.15625,312465.6875,281097.4375,681979.375,206467.8125,206053.5,231635.515625
1033,292937.3125,277520.6875,312475.15625,281131.40625,681975.5625,206400.84375,206034.359375,231699.265625
1034,292861.5,277009.125,312164.21875,280765.09375,681615.5,206192.171875,205653.140625,231346.640625
1035,292766.5625,276622.34375,311872.65625,280423.03125,681416.125,206045.625,205372.84375,231045.34375
1036,292824.0625,276863.28125,311987.8125,280557.9375,681546.0,206141.03125,205524.84375,231200.90625
1037,292913.0,277421.1875,312357.0625,281002.46875,681847.25,206293.296875,205896.140625,231638.828125
1038,292901.21875,277438.28125,312415.0,281083.5625,681857.1875,206252.15625,205926.71875,231731.625
1039,292816.0,276991.0625,312150.53125,280778.4375,681573.625,206105.71875,205634.1875,231452.328125
1040,292737.6875,276672.0625,311898.59375,280477.03125,681431.6875,205991.09375,205408.875,231199.84375
1041,292803.40625,276931.5,312036.0,280641.625,681586.875,206111.078125,205588.9375,231384.28125
1042,292868.75,277547.4375,312445.75,281149.71875,681998.25,206318.953125,206029.09375,231899.453125
1043,292790.25,277592.40625,312515.65625,281268.46875,682113.6875,206287.03125,206110.90625,232062.34375
1044,292723.71875,277183.1875,312291.96875,281010.0,681833.5625,206139.6875,205865.5625,231847.765625
1045,292781.65625,277003.5625,312176.71875,280841.46875,681616.125,206135.9375,205768.734375,231734.84375
1046,293001.53125,277448.28125,312487.78125,281184.6875,681883.25,206413.359375,206143.265625,232121.796875
1047,293036.125,278048.03125,312882.15625,281678.5625,682339.9375,206592.984375,206570.359375,232640.359375
1048,292979.4375,278131.875,313000.875,281852.46875,682570.375,206617.390625,206703.671875,232878.453125
1049,292865.1875,277678.3125,312751.96875,281581.75,682343.1875,206415.234375,206443.9375,232670.140625
1050,292770.6875,277282.875,312443.0625,281210.53125,681951.6875,206201.828125,206128.515625,232360.15625
1051,292837.90625,277454.71875,312518.8125,281293.21875,681944.9375,206249.296875,206195.65625,232461.1875
1052,292946.53125,278105.0625,312972.0,281845.59375,682458.625,206501.703125,206660.578125,233021.78125
1053,292909.875,278203.875,313108.71875,282039.0625,682729.0625,206528.875,206820.25,233279.53125
1054,292837.625,277769.0625,312864.4375,281754.3125,682491.625,206366.515625,206552.390625,233052.796875
1055,292748.0625,277379.8125,312570.5625,281403.1875,682128.0625,206211.578125,206260.828125,232750.78125
1056,292789.1875,277566.03125,312651.125,281495.8125,682172.3125,206275.671875,206369.546875,232873.71875
1057,292909.875,278227.5625,313122.5625,282060.15625,682746.75,206537.8125,206873.8125,233461.65625
1058,292862.6875,278289.0625,313226.625,282208.125,682988.625,206533.96875,206989.765625,233666.9375
1059,292719.09375,277766.40625,312902.53125,281837.90625,682677.375,206298.46875,206634.5625,233351.78125
1060,292715.6875,277477.96875,312704.59375,281585.0625,682447.1875,206246.4375,206453.15625,233160.796875
1061,292771.03125,277689.0625,312809.375,281697.625,682555.875,206356.59375,206600.046875,233322.625
1062,292896.28125,278342.34375,313281.4375,282257.21875,683161.875,206637.5,207109.03125,233914.5
1063,292872.25,278398.0625,313388.09375,282402.59375,683427.0625,206659.140625,207215.515625,234119.25
1064,292808.65625,277933.5,313132.5,282096.8125,683197.75,206514.921875,206919.765625,233862.46875
1065,292773.90625,277586.0625,312878.9375,281778.53125,682906.875,206405.5,206660.9375,233599.34375
1066,292862.6875,277803.75,312993.375,281901.5625,683004.1875,206519.484375,206786.640625,233744.625
1067,292983.625,278473.34375,313462.84375,282467.40625,683599.0,206803.53125,207281.765625,234325.234375
1068,292858.90625,278449.0,313486.0,282534.8125,683800.3125,206713.59375,207321.921875,234459.890625
1069,292701.125,277855.34375,313102.4375,282091.90625,683421.3125,206409.78125,206882.65625,234055.765625
1070,292642.03125,277501.5625,312830.03125,281757.0625,683098.5,206289.984375,206604.6875,233760.90625
1071,292713.71875,277735.5625,312941.25,281880.1875,683194.3125,206401.296875,206737.828125,233906.90625
1072,292803.03125,278343.34375,313346.34375,282371.84375,683699.375,206616.765625,207157.40625,234402.84375
1073,292760.5625,278352.09375,313395.875,282451.9375,683847.375,206574.46875,207186.28125,234509.5
1074,292651.21875,277868.3125,313111.75,282125.15625,683585.0625,206389.671875,206879.265625,234226.890625
1075,292606.0625,277575.875,312888.0625,281850.25,683349.75,206301.0625,206676.390625,234009.0
1076,292671.875,277825.125,313001.9375,281977.65625,683468.4375,206392.984375,206813.375,234164.75
1077,292748.6875,278465.75,313449.875,282533.46875,684073.1875,206641.796875,207304.21875,234745.359375
1078,292683.0625,278541.5625,313551.09375,282687.96875,684391.3125,206647.96875,207440.296875,234965.9375
1079,292550.90625,278015.03125,313238.78125,282332.84375,684159.5625,206423.28125,207106.453125,234663.28125
1080,292541.0,277712.84375,313027.4375,282064.09375,683967.375,206339.953125,206911.71875,234455.59375
1081,292657.3125,277981.3125,313178.625,282229.0625,684160.9375,206469.421875,207089.453125,234656.671875
1082,292739.90625,278612.0,313611.34375,282757.8125,684762.8125,206684.890625,207548.390625,235207.5
1083,292797.21875,278747.1875,313794.0,282980.59375,685133.8125,206766.25,207729.171875,235479.84375
1084,292704.25,278242.3125,313504.5,282637.09375,684913.1875,206562.140625,207396.75,235186.3125
1085,292603.46875,277815.375,313182.90625,282249.53125,684607.125,206376.703125,207074.171875,234853.28125
1086,292638.25,277984.46875,313244.4375,282313.0,684713.1875,206444.5625,207159.90625,234945.90625
1087,292727.40625,278600.28125,313660.0,282817.4375,685293.0625,206669.96875,207595.59375,235460.171875
1088,292659.71875,278651.25,313751.625,282961.84375,685610.75,206655.484375,207702.171875,235657.140625
1089,292539.03125,278122.6875,313441.375,282600.4375,685404.3125,206454.046875,207365.546875,235355.203125
1090,292501.03125,277757.625,313174.15625,282263.28125,685161.75,206346.84375,207099.65625,235073.484375
1091,292513.1875,277839.53125,313155.90625,282232.375,685156.375,206326.375,207074.796875,235056.234375
1092,292574.4375,278324.46875,313454.96875,282590.71875,685520.6875,206449.484375,207336.125,235387.3125
1093,292527.03125,278333.5,313504.40625,282667.15625,685705.0625,206440.1875,207367.96875,235486.1875
1094,292450.0625,277800.71875,313176.65625,282269.03125,685385.5,206238.578125,206985.125,235108.4375
1095,292427.53125,277473.3125,312912.625,281927.40625,685089.125,206142.90625,206722.359375,234799.640625
1096,292477.875,277677.25,313009.71875,282037.375,685228.1875,206265.84375,206879.4375,234934.734375
1097,292535.4375,278204.40625,313364.78125,282473.9375,685726.875,206450.90625,207274.796875,235380.234375
1098,292503.0625,278213.34375,313421.625,282555.9375,685936.6875,206435.171875,207343.375,235502.28125
1099,292407.5,277625.9375,313062.21875,282124.71875,685587.75,206212.828125,206941.484375,235100.3125
1100,292333.65625,277172.5625,312698.3125,281671.59375,685154.3125,206033.46875,206558.203125,234664.984375
1101,292429.3125,277374.0625,312789.25,281761.375,685212.875,206143.265625,206665.21875,234750.015625
1102,292555.1875,277996.4375,313210.625,282262.3125,685727.3125,206393.328125,207103.234375,235241.03125
1103,292503.15625,277979.1875,313227.625,282297.09375,685841.75,206345.765625,207102.953125,235295.03125
1104,292372.625,277377.46875,312839.0625,281839.25,685424.125,206084.96875,206659.859375,234853.28125
1105,292333.21875,277008.59375,312555.09375,281480.34375,685067.5,205976.34375,206376.078125,234527.5625
1106,292401.0625,277199.28125,312621.4375,281548.03125,685089.5625,206082.5625,206467.1875,234601.859375
1107,292463.03125,277781.875,312987.8125,281999.71875,685522.9375,206270.9375,206839.75,235033.96875
1108,292382.8125,277780.25,313022.4375,282073.3125,685666.375,206238.75,206869.078125,235125.078125
1109,292263.5625,277201.6875,312656.5,281640.84375,685271.25,206001.375,206451.09375,234715.953125
1110,292235.9375,276820.8125,312356.34375,281258.625,684857.8125,205875.578125,206127.703125,234348.578125
1111,292309.0625,277005.4375,312419.75,281319.96875,684839.25,205972.234375,206198.875,234394.078125
1112,292369.875,277535.71875,312746.4375,281718.09375,685178.0,206105.09375,206520.5625,234758.0625
1113,292326.3125,277572.125,312808.125,281813.21875,685306.6875,206079.609375,206578.9375,234861.140625
1114,292212.78125,277031.46875,312471.15625,281415.71875,684935.5625,205873.796875,206209.15625,234479.640625
1115,292094.3125,276556.09375,312094.75,280963.5,684447.1875,205671.28125,205832.671875,234044.6875
1116,292080.625,276649.53125,312070.875,280934.875,684339.125,205657.15625,205830.078125,234016.78125
1117,292180.84375,277266.0625,312470.78125,281415.53125,684782.625,205879.96875,206248.59375,234475.984375
1118,292288.9375,277426.65625,312655.40625,281617.34375,685014.6875,206011.65625,206423.5625,234686.0
1119,292298.5,276965.65625,312400.25,281285.625,684676.875,205902.3125,206130.390625,234359.75
1120,292203.75,276495.46875,312027.96875,280834.9375,684166.875,205714.640625,205759.796875,233914.234375
1121,292199.53125,276599.1875,312022.84375,280832.0625,684071.6875,205746.390625,205792.875,233903.78125
1122,292281.4375,277184.25,312397.75,281282.9375,684476.0,205963.203125,206193.421875,234340.703125
1123,292202.84375,277130.71875,312389.6875,281296.53125,684500.1875,205906.96875,206166.953125,234359.484375
1124,292073.03125,276447.1875,311946.3125,280766.1875,683924.1875,205626.9375,205644.375,233820.8125
1125,291995.15625,275927.46875,311520.75,280228.3125,683261.8125,205418.0,205165.59375,233264.6875
1126,292036.90625,276007.59375,311495.71875,280178.3125,683039.5625,205458.578125,205145.65625,233185.75
1127,292095.21875,276447.375,311732.09375,280453.25,683134.0625,205565.96875,205346.203125,233395.578125
1128,292041.5625,276382.0,311692.0625,280411.6875,682984.6875,205506.421875,205272.0,233325.578125
1129,291959.21875,275794.875,311319.5,279951.84375,682413.8125,205322.59375,204855.890625,232855.390625
1130,291895.1875,275303.84375,310928.15625,279451.4375,681782.0,205177.046875,204450.171875,232348.8125
1131,291905.21875,275319.0625,310839.28125,279319.75,681547.125,205183.296875,204361.5625,232183.671875
1132,291967.25,275767.0,311090.78125,279613.375,681630.0625,205315.171875,204601.4375,232419.34375
1133,291903.875,275651.75,311008.28125,279517.0625,681466.1875,205217.71875,204475.828125,232286.3125
1134,291803.75,274995.84375,310556.40625,278956.125,680952.125,204959.34375,203948.328125,231680.84375
1135,291797.125,274560.15625,310199.84375,278480.21875,680447.8125,204852.5,203567.0,231166.21875
1136,291908.78125,274720.21875,310229.09375,278475.46875,680360.375,204973.203125,203611.53125,231106.40625
1137,291954.75,275213.8125,310492.9375,278785.53125,680614.3125,205109.0,203871.078125,231342.171875
1138,291849.6875,275139.875,310420.9375,278712.3125,680551.0,205008.15625,203768.609375,231226.125
1139,291736.59375,274519.125,310000.75,278198.6875,680002.3125,204727.953125,203280.71875,230667.875
1140,291704.40625,274099.09375,309648.75,277745.75,679447.125,204581.59375,202897.34375,230171.390625
1141,291775.3125,274272.71875,309670.5625,277752.1875,679314.8125,204662.0625,202930.328125,230117.84375
1142,291881.96875,274916.46875,310053.75,278204.5625,679673.0625,204891.5625,203326.046875,230500.9375
1143,291849.59375,275022.40625,310158.90625,278348.25,679818.6875,204935.109375,203444.96875,230624.328125
1144,291760.28125,274553.09375,309859.03125,277989.65625,679441.3125,204760.140625,203113.34375,230253.46875
1145,291695.90625,274186.53125,309541.53125,277598.3125,678967.1875,204594.734375,202786.03125,229840.9375
1146,291755.71875,274407.8125,309606.8125,277664.8125,678900.5625,204679.9375,202874.546875,229858.203125
1147,291855.0625,275074.78125,310029.53125,278183.84375,679340.375,204895.40625,203310.84375,230314.4375
1148,291799.4375,275154.375,310095.6875,278289.4375,679423.6875,204842.390625,203342.859375,230383.109375
1149,291708.96875,274727.8125,309826.84375,277978.65625,679079.9375,204662.78125,203027.078125,230052.484375
1150,291663.28125,274469.40625,309618.53125,277732.875,678774.125,204577.125,202833.421875,229803.84375
1151,291697.78125,274765.1875,309755.0625,277908.90625,678872.75,204678.59375,203019.46875,229975.140625
1152,291737.21875,275473.5625,310202.1875,278486.03125,679429.5,204873.953125,203512.90625,230535.28125
1153,291718.0,275753.125,310440.625,278816.5625,679841.6875,204930.015625,203777.640625,230895.40625
1154,291706.0,275569.65625,310387.5,278774.90625,679891.625,204875.203125,203721.671875,230906.578125
1155,291679.46875,275441.1875,310303.21875,278692.375,679900.125,204849.1875,203677.953125,230893.078125
1156,291733.28125,275862.375,310564.375,279038.5625,680322.875,204992.0625,204011.890625,231291.03125
1157,291975.40625,276891.8125,311333.25,279973.3125,681317.75,205432.03125,204850.265625,232277.640625
1158,292059.8125,277368.96875,311777.875,280546.0625,681907.3125,205651.96875,205341.734375,232936.84375
1159,291976.46875,277143.5,311711.4375,280515.5625,681912.25,205544.859375,205275.390625,232995.75
1160,291896.28125,277009.21875,311644.9375,280481.40625,681916.25,205493.359375,205265.734375,233072.828125
1161,291949.375,277460.8125,311969.40625,280914.5,682396.8125,205679.328125,205688.71875,233612.75
1162,292044.59375,278335.46875,312626.09375,281755.90625,683367.1875,205971.515625,206422.484375,234549.734375
1163,292004.46875,278640.71875,312958.78125,282227.0,684087.0625,206018.984375,206805.5,235157.53125
1164,291917.0,278298.71875,312849.25,282138.84375,684230.75,205860.734375,206682.5625,235195.609375
1165,291826.96875,277983.5625,312668.1875,281947.59375,684228.3125,205724.75,206511.890625,235128.828125
1166,291862.9375,278204.21875,312823.0625,282148.40625,684579.5,205793.765625,206690.53125,235428.34375
1167,291996.40625,278968.46875,313423.875,282890.65625,685542.6875,206119.75,207336.671875,236268.953125
1168,291978.4375,279092.65625,313628.875,283173.5625,686127.6875,206141.75,207542.3125,236672.796875
